# <Transmitter Set: Tx: 1 TX2 - Point 1> 
# <Receiver Set: Rx: 11 32 Extra Receivers > 
# <number of receiver points>
# <receiver point number> <number of paths for this point>
# <path number> <arrival phi(deg)> <arrival theta(deg)> <received power(dBm)>
 32
1 25
1 -123.615 85.9016 -75.2171
2 -123.11 85.9017 -87.6245
3 99.8942 87.0014 -92.1133
4 100.086 87.0015 -94.0824
5 152.231 88.182 -96.1125
6 -120.629 88.4172 -96.5083
7 -103.394 85.9663 -97.5964
8 -103.427 85.9663 -100.03
9 -178.05 87.4161 -100.486
10 -122.21 85.9023 -100.534
11 95.4261 87.3023 -101.126
12 -134.342 86.0718 -101.576
13 92.0112 81.5834 -102.295
14 -110.872 88.6201 -102.756
15 95.2826 87.3023 -102.785
16 25.3738 86.5621 -103.469
17 152.32 88.182 -103.899
18 -103.394 86.0488 -104.042
19 -129.96 85.931 -104.062
20 -134.358 86.0718 -104.094
21 -178.05 94.116 -104.287
22 -178.044 87.4161 -104.451
23 -115.522 85.9603 -105.032
24 -90.2442 85.4594 -105.532
25 122.586 102.656 -106.23
2 25
1 -55.0557 82.2304 -69.492
2 -49.6666 82.2727 -95.6723
3 -19.2957 84.0684 -96.3893
4 -56.2457 82.1773 -96.77
5 -50.9079 88.914 -97.3184
6 78.0611 88.6115 -97.6021
7 -19.2383 84.0684 -97.9707
8 -51.2414 88.9146 -98.1624
9 -79.8871 88.5467 -99.4638
10 16.2584 87.1358 -99.7795
11 -79.8594 88.5467 -100.883
12 75.845 86.6298 -101.24
13 -152.704 84.5904 -101.332
14 128.094 87.8558 -101.396
15 -13.2037 86.0082 -102.081
16 16.2679 87.1358 -102.194
17 -51.6852 91.2867 -103.816
18 -19.2957 83.9343 -104.141
19 -13.1423 86.0084 -104.21
20 -152.506 84.591 -105.068
21 77.7934 88.6196 -105.419
22 87.3072 88.6165 -105.539
23 89.6788 84.0137 -105.805
24 -26.9134 88.5761 -106.046
25 -51.3283 91.3686 -106.094
3 25
1 -69.7295 84.3915 -72.3642
2 -70.4404 84.3905 -89.8073
3 69.0791 85.7298 -94.3818
4 -51.9247 84.9008 -95.6007
5 77.9427 88.4786 -96.7459
6 16.8494 88.1279 -96.9834
7 -51.8694 84.9008 -97.2118
8 69.0362 85.7298 -98.6068
9 120.686 87.6534 -99.907
10 -72.8361 84.4088 -100.588
11 135.084 87.5734 -101.363
12 134.476 87.5734 -101.601
13 127.257 87.6986 -101.911
14 -133.583 85.0587 -102.57
15 -51.9247 84.802 -102.821
16 134.25 89.1707 -102.822
17 113.231 88.6126 -103.064
18 17.0352 88.1456 -103.169
19 127.239 87.6986 -103.213
20 41.3812 87.9844 -104.322
21 -133.501 85.0588 -104.385
22 -121.677 85.7854 -104.418
23 -48.4201 84.4669 -104.719
24 41.3556 87.9844 -105.109
25 36.5644 81.9007 -105.158
4 25
1 -62.8079 84.3306 -82.1443
2 -40.9989 87.7427 -91.7656
3 -63.7901 84.2397 -92.6618
4 -63.491 84.3312 -93.3078
5 53.2706 86.0338 -95.5193
6 76.5844 88.5103 -96.4111
7 -60.0754 88.9683 -98.7296
8 -59.7578 88.9686 -99.5453
9 -41.0126 87.6512 -100.122
10 131.532 87.1187 -100.205
11 53.2965 86.0338 -100.272
12 4.36731 87.8858 -101.405
13 131.581 87.1187 -101.786
14 -75.3109 84.3572 -102.215
15 115.272 87.6552 -102.349
16 17.4783 88.2139 -103.135
17 104.636 88.823 -103.305
18 130.852 87.5421 -103.493
19 -113.125 84.5499 -104.159
20 76.4461 88.5103 -104.661
21 -40.9526 88.0577 -105.077
22 -58.4838 91.05 -105.767
23 132.386 87.6325 -105.777
24 130.424 87.5425 -105.779
25 35.697 82.2934 -105.973
5 25
1 -37.329 83.6054 -80.6026
2 64.4535 83.7412 -83.9123
3 65.4371 83.7412 -93.0182
4 -33.7047 83.6063 -94.5875
5 -40.6629 83.6132 -95.7491
6 61.3223 83.7414 -97.6843
7 33.4761 84.5305 -98.3036
8 160.751 89.0541 -102.038
9 137.581 89.0323 -102.078
10 54.185 86.9639 -102.254
11 34.0836 84.5308 -102.783
12 122.457 87.7592 -103.611
13 -23.7685 83.9192 -106.412
14 62.9343 89.876 -107.382
15 -41.6283 83.6177 -108.141
16 67.5978 89.5939 -108.208
17 82.4398 87.7629 -108.565
18 60.0044 90.2744 -109.271
19 -19.6068 84.9994 -109.277
20 -18.1982 82.3315 -109.313
21 89.4386 89.2721 -109.361
22 100.828 87.8861 -109.621
23 -22.159 83.9613 -110.031
24 160.75 89.0472 -110.337
25 54.175 86.9639 -110.386
6 25
1 48.9601 87.4034 -98.5015
2 -3.24024 85.0311 -99.5284
3 24.0689 85.1085 -99.7361
4 48.9532 87.4034 -100.666
5 -3.29101 85.0312 -101.804
6 24.1567 85.1087 -102.542
7 42.9108 88.4601 -103.172
8 42.9251 88.4601 -103.811
9 71.8559 88.7346 -104.325
10 -1.54893 84.6862 -106.12
11 42.9251 88.47 -109.056
12 64.4443 86.0542 -109.616
13 -11.4271 84.5005 -110.011
14 42.9108 88.47 -110.016
15 -9.02481 85.3465 -110.599
16 44.3428 86.4427 -110.609
17 -12.8269 88.0678 -110.909
18 74.2626 90.4841 -110.977
19 35.8836 85.8362 -111.12
20 61.9623 88.1897 -111.443
21 44.3799 86.4427 -111.591
22 64.2678 86.0544 -111.913
23 -61.4391 86.0758 -111.98
24 61.9429 88.1897 -112.024
25 94.1966 90.8392 -112.264
7 25
1 117.029 88.7657 -98.7886
2 12.7762 88.7326 -99.3363
3 12.9282 88.7405 -104.261
4 117.022 88.7657 -105.248
5 -20.9695 87.1771 -107.596
6 -102.17 88.76 -108.51
7 -4.89583 87.4546 -109.991
8 -16.8416 87.2028 -110.517
9 -4.95406 87.4546 -111.869
10 10.3709 87.9004 -112.195
11 -119.14 88.8204 -112.915
12 -8.77903 87.3304 -113.008
13 -11.0126 88.0014 -113.258
14 -87.1688 87.5399 -113.591
15 116.892 88.7658 -113.803
16 -76.402 87.2811 -114.128
17 17.5959 86.0424 -114.269
18 -103.868 88.7684 -114.437
19 -137.391 87.476 -114.835
20 -14.5982 87.2188 -114.872
21 -130.397 87.6105 -114.899
22 -119.14 88.8146 -114.968
23 -160.666 96.3615 -115.235
24 -87.2307 87.5399 -115.535
25 -157.928 97.925 -115.681
8 25
1 26.8735 87.482 -93.66
2 11.0156 87.0257 -99.3939
3 26.8721 87.482 -100.653
4 26.8778 87.482 -100.744
5 10.8991 87.0257 -102.638
6 -20.2514 86.0179 -104.221
7 -12.1514 86.0807 -108.536
8 43.2596 88.6625 -109.16
9 3.42435 87.8435 -109.618
10 43.2468 88.6625 -109.693
11 28.9644 84.4914 -110.248
12 3.4021 87.8435 -110.857
13 72.6247 91.3657 -111.301
14 43.2468 88.6679 -112.078
15 56.0575 90.013 -112.58
16 43.2596 88.6679 -112.624
17 15.4465 88.4883 -113.343
18 -16.3791 86.1981 -113.415
19 15.5135 88.6775 -113.554
20 -7.02314 86.1262 -113.825
21 -7.22541 87.4979 -113.954
22 -17.9537 86.4879 -113.991
23 -15.9945 86.9727 -114.015
24 15.5135 88.6859 -114.113
25 -18.9171 88.7742 -114.162
9 25
1 -35.2495 88.9265 -99.4424
2 -34.9237 88.9276 -100.456
3 34.3868 87.8708 -104.82
4 -35.8375 88.4477 -106.39
5 -35.8173 88.4478 -107.685
6 -34.8935 88.9276 -109.32
7 70.8579 88.8851 -109.522
8 54.3399 93.1715 -110.079
9 12.6363 84.2611 -110.164
10 34.6652 86.2316 -111.47
11 20.5175 87.5681 -111.952
12 -30.6697 85.8758 -113.537
13 86.932 92.789 -113.662
14 82.6236 92.7511 -114.022
15 86.9191 92.7889 -114.436
16 12.0128 87.133 -114.506
17 -29.1965 86.2163 -114.595
18 82.6083 92.7511 -114.651
19 70.6779 88.8908 -115.1
20 20.4842 87.5682 -115.117
21 24.6972 86.2715 -115.53
22 -35.7524 88.9265 -115.664
23 -35.3601 88.9265 -115.848
24 44.4666 87.1581 -115.858
25 28.4012 87.9963 -116.404
10 25
1 67.8742 86.7564 -105.347
2 25.6395 85.3768 -105.523
3 67.9766 86.7565 -107.387
4 71.8866 88.8173 -107.649
5 -13.3738 88.9862 -108.44
6 4.61674 83.2944 -108.883
7 3.08182 85.8971 -109.571
8 -3.3569 87.0155 -109.858
9 25.6893 85.3771 -110.589
10 46.4513 85.9883 -110.811
11 42.758 84.2511 -110.926
12 54.312 87.7107 -111.38
13 0.791698 85.6031 -113.105
14 14.0641 87.2849 -114.711
15 71.1143 89.833 -114.92
16 88.9543 90.6347 -114.924
17 40.5037 73.1163 -115.024
18 15.4657 85.531 -115.326
19 -42.1766 89.2864 -116.231
20 2.96836 85.8767 -116.722
21 -0.00208814 90.1262 -116.843
22 -42.3967 89.2865 -116.957
23 9.74304 86.8276 -117.208
24 4.22476 82.3593 -117.232
25 54.3065 87.7107 -118.188
11 25
1 14.3689 84.5999 -93.9565
2 14.3217 84.6 -95.7723
3 -0.63448 88.7121 -101.886
4 72.7491 88.7667 -103.788
5 54.644 87.5002 -104.373
6 23.5901 88.3247 -106.718
7 -1.89906 82.6726 -108.376
8 43.3326 85.3014 -108.615
9 23.5458 88.3247 -108.669
10 54.6376 87.5002 -108.674
11 6.26219 84.9039 -110.146
12 -3.08144 85.4782 -110.152
13 -6.78244 84.0751 -110.18
14 17.2351 87.024 -110.455
15 75.7558 90.0257 -111.549
16 39.1028 83.055 -111.959
17 -7.85059 88.9479 -111.973
18 17.2007 87.0241 -112.154
19 44.8427 86.3565 -112.422
20 37.7604 87.6971 -112.438
21 95.2322 90.7262 -113.366
22 65.7255 88.8802 -114.145
23 65.7341 88.8802 -114.379
24 5.38327 87.0748 -114.543
25 8.57228 87.064 -115.086
12 25
1 68.4263 91.7129 -111.766
2 21.0242 87.8346 -112.71
3 14.5797 85.3054 -112.84
4 32.1946 86.8291 -112.986
5 27.8543 88.1807 -113.569
6 -26.3888 84.724 -114.079
7 126.992 89.1787 -114.578
8 -25.1926 85.3323 -115.042
9 27.8749 88.1807 -115.063
10 -23.7811 78.4841 -115.561
11 20.9955 87.8347 -115.66
12 43.2164 87.1399 -115.738
13 27.8543 88.1972 -116.117
14 -24.0999 78.4246 -116.737
15 24.5857 86.8638 -117.406
16 32.1946 94.6907 -117.597
17 45.9683 86.7516 -117.696
18 27.8749 88.1972 -117.808
19 14.129 87.8301 -117.919
20 43.9719 87.5687 -118.576
21 62.8689 90.1691 -118.684
22 74.4288 90.6158 -118.869
23 49.9472 88.132 -119.811
24 68.4249 88.997 -119.895
25 17.7406 88.0193 -120.023
13 25
1 55.4607 93.1238 -107.733
2 82.9679 92.7066 -110.04
3 22.1581 87.5862 -110.094
4 82.9534 92.7066 -110.615
5 14.7352 84.5692 -111.455
6 37.3448 86.3045 -111.99
7 55.4651 93.1238 -112.379
8 51.3018 86.7702 -112.419
9 22.1249 87.5863 -112.6
10 65.2716 87.2924 -112.724
11 -29.9028 85.0503 -112.81
12 87.1084 92.7428 -112.944
13 -51.14 87.8519 -113.267
14 87.0961 92.7428 -113.63
15 27.0264 86.3232 -113.703
16 -28.4863 85.4899 -113.914
17 65.2056 87.2925 -114.42
18 -34.9824 88.4337 -114.956
19 55.4607 87.9922 -115.753
20 70.8964 88.9015 -115.781
21 71.0795 88.8959 -115.808
22 -34.9621 88.4337 -116.114
23 14.2116 87.4872 -116.514
24 85.448 92.4994 -116.8
25 75.7084 88.8422 -117.074
14 25
1 21.2286 85.3028 -100.527
2 21.274 85.303 -103.255
3 66.0317 86.6642 -105.124
4 52.8509 87.6714 -106.12
5 65.9244 86.6642 -107.122
6 71.6615 88.8048 -107.895
7 52.8452 87.6715 -108.926
8 2.56619 83.2906 -108.967
9 42.6417 85.8835 -110.81
10 1.16269 85.2864 -110.949
11 44.1118 86.7164 -111.332
12 -1.50647 84.9852 -111.47
13 45.6501 89.1242 -112.547
14 44.2674 86.7166 -113.808
15 88.8327 90.6667 -114.543
16 -2.56994 89.7351 -114.58
17 12.2628 85.4928 -114.761
18 72.9689 90.3358 -114.83
19 12.0685 87.2718 -115.27
20 115.187 120.242 -115.501
21 40.9822 73.9433 -115.856
22 114.573 119.83 -116.116
23 -42.4509 89.2897 -116.224
24 8.36845 87.1668 -116.267
25 38.1171 87.8465 -116.828
15 25
1 11.7435 84.4349 -99.0727
2 54.8986 87.4582 -101.15
3 72.9528 88.7575 -102.221
4 11.6984 84.4351 -102.418
5 54.8919 87.4582 -103.831
6 -91.9855 88.8704 -103.877
7 4.3864 84.7723 -107.881
8 42.9223 85.1503 -108.062
9 -3.14323 82.6075 -108.391
10 -1.87194 88.7048 -108.792
11 -4.67771 85.465 -109.023
12 37.4924 87.6617 -109.035
13 -91.9855 88.876 -109.26
14 72.7405 88.7644 -110.184
15 -7.70719 84.3447 -110.43
16 -92.1153 88.876 -110.622
17 -20.2878 88.8002 -110.765
18 76.5123 90.0582 -111.208
19 -20.2989 88.8002 -111.254
20 65.727 88.8424 -111.34
21 44.706 86.266 -111.656
22 39.1148 83.0411 -111.752
23 -8.17967 85.7994 -111.841
24 -9.00069 88.806 -112.174
25 23.1509 88.3074 -112.815
16 25
1 172.858 81.7803 -74.0873
2 174.527 82.0417 -80.8864
3 -79.7015 84.741 -86.6993
4 -81.1044 84.8136 -87.7365
5 -178.745 84.9451 -89.6334
6 145.519 85.3766 -96.103
7 -162.09 86.188 -96.108
8 -51.3026 74.4509 -96.3182
9 -89.7422 69.7947 -97.2814
10 -105.176 77.9572 -97.9574
11 -92.0813 69.3218 -98.0869
12 -43.3548 71.5883 -98.8196
13 -102.187 79.9222 -99.259
14 146.79 85.4275 -99.8474
15 166.754 81.7889 -99.8532
16 116.773 65.0261 -102.023
17 -101.555 62.0913 -103.999
18 -76.683 87.4244 -104.165
19 -90.5729 63.8652 -104.869
20 116.74 62.3593 -104.871
21 -157.021 76.2972 -105.72
22 -174.687 88.6628 -105.906
23 -76.6459 87.4244 -105.911
24 -97.2465 62.9342 -105.956
25 -135.17 59.4715 -105.982
17 25
1 -88.2208 85.1722 -89.305
2 -89.3858 85.2483 -93.223
3 -71.5268 72.3844 -96.1491
4 153.546 85.6493 -97.6912
5 154.646 85.7062 -98.1224
6 -75.6011 72.9416 -99.4548
7 -111.404 86.9607 -100.953
8 -151.438 78.5746 -101.468
9 -110.778 75.0223 -101.493
10 145.813 97.4342 -101.512
11 -111.834 74.6633 -102.261
12 -117.858 81.1239 -102.358
13 156.267 98.1409 -102.446
14 -159.721 86.6655 -103.197
15 -116.363 82.6693 -103.89
16 -80.1727 87.9287 -105.54
17 119.054 45.5081 -106.273
18 -111.888 87.0026 -106.61
19 -80.2038 87.9287 -106.897
20 -115.918 69.7162 -107.52
21 -72.0104 86.7331 -107.686
22 -140.022 63.6249 -107.944
23 -153.325 79.7643 -108.017
24 -110.665 71.3166 -108.723
25 -170.605 68.1563 -108.869
18 25
1 139.394 79.9426 -67.9682
2 142.393 80.085 -68.929
3 142.967 79.0124 -83.838
4 70.417 83.8028 -84.1917
5 69.2824 83.9635 -89.0046
6 -26.71 114.147 -89.2849
7 -24.6511 114.363 -89.6175
8 -38.0172 70.0788 -90.5398
9 -8.92412 97.6316 -92.2291
10 -8.49372 97.7497 -92.4688
11 -25.2256 73.0631 -93.3654
12 -11.0896 60.9072 -97.0245
13 -13.2754 59.5488 -97.2366
14 70.717 82.2103 -97.6312
15 129.111 88.552 -98.0478
16 77.4088 71.3281 -99.3398
17 93.1876 87.0785 -99.8012
18 90.4979 87.1144 -100.963
19 85.9256 77.2029 -101.034
20 -171.211 85.1688 -101.528
21 -26.4748 45.3116 -101.817
22 -36.9366 66.9174 -102.011
23 89.2948 71.3802 -102.135
24 -170.506 85.2765 -102.333
25 165.95 66.2277 -102.41
19 25
1 -141.874 82.6591 -69.9847
2 -141.98 82.9365 -76.729
3 140.677 88.3124 -87.5934
4 -137.493 88.126 -91.2488
5 30.7763 87.9341 -93.2554
6 -56.5527 73.4591 -94.6949
7 -124.905 86.8091 -94.843
8 -158.934 82.7735 -95.0533
9 136.76 88.8115 -96.9873
10 -175.313 84.2303 -98.3295
11 -166.021 84.8427 -99.7738
12 -150.064 88.7961 -99.8563
13 -143.767 88.6817 -100.05
14 30.8367 87.9567 -100.199
15 -175.264 84.2304 -100.307
16 -159.008 82.7737 -101.248
17 -141.734 88.6832 -101.293
18 -140.982 88.6832 -101.327
19 -175.264 84.3534 -101.577
20 -165.973 84.8428 -101.739
21 -89.5065 83.9572 -103.626
22 -175.313 84.3535 -103.68
23 -51.1425 66.4872 -103.688
24 -24.0255 87.6488 -104.368
25 -143.767 88.691 -104.964
20 25
1 -143.183 86.2286 -75.9874
2 -137.399 86.2636 -80.1444
3 -143.212 86.3036 -81.1624
4 -143.317 86.0943 -88.9523
5 -137.578 86.3363 -90.2311
6 159.195 86.5951 -92.6166
7 159.359 86.5951 -94.7471
8 13.1416 81.4831 -100.463
9 19.9904 61.6837 -101.552
10 -143.882 88.8737 -101.754
11 -147.701 86.2476 -102.346
12 133.94 87.9659 -102.361
13 -160.486 86.4943 -102.82
14 -97.6832 68.4794 -103.044
15 133.965 87.9659 -103.095
16 -138.055 88.6346 -103.218
17 -138.321 87.2452 -104.876
18 -160.504 86.4943 -104.938
19 13.1276 81.3204 -105.561
20 15.7147 92.8635 -105.665
21 -143.881 88.8805 -106.657
22 -124.377 87.6484 -106.712
23 20.2595 62.5558 -106.723
24 104.441 84.5665 -106.856
25 22.9763 69.6231 -107.146
21 25
1 -143.711 88.0515 -82.3472
2 -143.721 88.0717 -87.3092
3 -143.858 87.9743 -95.4864
4 -165.466 88.16 -100.678
5 -165.466 88.1774 -100.986
6 -165.467 88.1774 -102.051
7 -165.467 88.16 -103.007
8 -142.392 88.0519 -104.223
9 -143.968 89.1198 -104.547
10 -151.551 88.0963 -105.183
11 -160.582 88.1369 -105.288
12 -164.283 88.1584 -106.585
13 -160.571 88.1369 -106.6
14 -151.556 88.0963 -106.689
15 -160.582 88.1545 -108.271
16 -142.392 88.0721 -109.212
17 -160.571 88.1545 -109.369
18 -143.966 89.124 -109.435
19 153.836 85.9321 -110.181
20 -153.279 88.0831 -110.564
21 -140.615 88.0588 -110.895
22 -145.641 88.056 -110.923
23 -157.397 88.5917 -112.243
24 -153.269 88.0831 -113.153
25 -150.512 88.1594 -113.629
22 25
1 -159.134 78.5334 -72.7961
2 -158.288 79.1736 -78.2982
3 179.789 78.6408 -83.4109
4 179.789 79.2765 -94.8163
5 179.805 78.6408 -94.9543
6 8.34247 82.4396 -97.3887
7 179.752 79.2765 -97.403
8 169.469 83.9609 -97.9885
9 9.35733 82.5725 -98.0409
10 169.404 83.961 -100.151
11 179.82 78.6409 -103.841
12 101.573 82.9768 -104.876
13 179.805 79.2765 -105.487
14 176.653 86.1422 -106.015
15 9.34593 82.3791 -106.25
16 142.84 88.4348 -106.497
17 157.972 87.6383 -106.67
18 142.848 88.4348 -107.242
19 42.6631 86.5438 -107.317
20 177.713 86.1524 -107.452
21 -160.514 61.9958 -108.922
22 157.905 87.6384 -108.927
23 179.708 78.6409 -110.736
24 128.16 87.5792 -110.758
25 140.435 86.1055 -110.806
23 25
1 126.71 83.0958 -70.5209
2 128.847 83.1066 -71.3467
3 -49.5627 88.4602 -93.573
4 29.7511 82.4618 -93.8193
5 29.0534 82.2015 -94.1456
6 -50.0366 88.4611 -94.4023
7 62.2836 61.3242 -97.2225
8 61.4256 60.5668 -97.9391
9 131.152 83.2335 -98.5802
10 69.3638 85.9894 -99.9453
11 124.132 86.1151 -102.108
12 -43.519 95.2192 -102.838
13 -43.5771 95.2124 -103.704
14 -35.1432 92.291 -103.878
15 87.9576 77.9736 -104.008
16 84.6457 83.0427 -104.254
17 -34.1554 92.4149 -104.292
18 124.09 86.1152 -104.308
19 -159.253 29.2933 -104.969
20 92.342 81.8043 -105.606
21 -51.1531 80.3046 -105.72
22 94.135 77.6673 -106.021
23 68.6332 86.0577 -106.188
24 88.7957 96.3643 -106.389
25 53.9522 47.75 -106.437
24 25
1 155.381 52.5862 -60.0146
2 165.737 56.0595 -69.7982
3 -176.427 75.9581 -73.8416
4 42.64 82.5267 -74.0403
5 42.6413 82.4563 -81.0708
6 -58.8488 99.7216 -86.2686
7 -40.2596 94.3392 -87.423
8 -58.7736 100.042 -88.8963
9 -43.3307 93.9095 -90.1138
10 43.536 82.5274 -90.7893
11 42.6161 83.7756 -93.3379
12 -50.9711 88.706 -95.4067
13 -51.3685 88.7068 -96.2531
14 -60.4074 88.7099 -96.2803
15 64.5402 88.5723 -96.7522
16 26.9849 74.9333 -97.2453
17 39.8047 86.7974 -97.2754
18 34.2114 66.2967 -97.8002
19 39.7924 86.7785 -97.817
20 13.3194 72.9645 -98.3523
21 6.21499 84.2173 -98.3732
22 96.5645 59.9528 -98.81
23 -43.0878 81.3457 -99.3986
24 39.6287 86.7961 -99.5887
25 97.053 85.5821 -100.014
25 25
1 -156.664 64.7135 -64.5128
2 -155.143 67.5435 -69.8348
3 -153.139 67.8324 -75.3685
4 25.6774 81.2531 -79.3783
5 154.401 86.6975 -87.7347
6 25.702 81.2531 -88.2785
7 154.467 86.6975 -89.4629
8 25.6527 81.2531 -91.416
9 25.6774 81.6375 -91.6017
10 -80.8491 93.078 -91.9779
11 35.6074 88.2808 -92.439
12 -91.6943 95.2334 -92.6557
13 31.9721 88.282 -93.5558
14 24.7355 86.5281 -93.5882
15 -89.959 95.7414 -94.7223
16 -83.0046 92.638 -95.1315
17 8.54637 69.9919 -95.2071
18 18.2535 58.1866 -96.2079
19 130.817 88.3447 -96.8163
20 35.5964 88.2966 -97.3873
21 -7.74531 69.6426 -97.6459
22 -14.2299 83.7558 -98.1532
23 -60.552 85.9618 -98.3095
24 25.6527 81.6375 -98.3217
25 149.153 82.1476 -98.3728
26 25
1 174.621 77.3124 -70.6662
2 177.086 77.9385 -76.7463
3 102.39 81.3209 -79.7126
4 61.497 80.796 -81.6017
5 -69.8801 85.262 -83.7785
6 -173.458 83.3332 -85.5909
7 -68.4851 85.2234 -85.7251
8 154.112 87.1529 -85.8184
9 154.163 87.1529 -87.5219
10 23.2857 81.7176 -88.4678
11 102.39 81.6991 -89.4408
12 102.371 81.3209 -89.5084
13 60.1904 81.1795 -90.0811
14 102.408 81.3209 -90.7212
15 55.9942 62.0044 -92.5973
16 25.2228 85.1379 -93.2046
17 102.371 81.6991 -94.2503
18 132.606 88.422 -94.4974
19 93.5987 81.9016 -95.243
20 101.441 86.5059 -95.4717
21 81.0946 55.8702 -95.8607
22 -72.7184 78.8469 -97.0662
23 94.2801 86.5361 -98.0597
24 -58.1104 72.9363 -98.4188
25 93.5737 53.252 -98.8477
27 25
1 167.916 79.9761 -75.3308
2 170.134 80.3329 -77.5246
3 73.4898 81.1973 -80.7521
4 -73.9396 84.8008 -84.9293
5 -161.657 85.8061 -85.432
6 174.939 79.4755 -85.7089
7 -72.4458 84.7447 -85.9196
8 71.7771 81.5053 -87.3134
9 87.4597 82.5563 -90.0983
10 153.275 87.3299 -94.2418
11 153.23 87.33 -95.6609
12 -85.471 76.5165 -95.6826
13 -65.9625 68.5511 -96.5159
14 89.0468 78.8884 -96.9287
15 112.478 86.7502 -97.0605
16 -68.7249 67.8525 -97.113
17 -80.6883 78.9212 -97.134
18 112.24 86.7556 -97.7822
19 -29.2797 74.5876 -98.5045
20 104.93 59.7716 -98.8605
21 117.403 86.7415 -99.1428
22 117.629 86.7264 -99.1489
23 112.494 86.7502 -100.163
24 92.6988 87.587 -100.337
25 -25.5776 73.3641 -101.051
28 25
1 159.846 81.2703 -76.1786
2 162.024 81.5011 -77.2922
3 -75.4912 84.1822 -84.0828
4 -73.8352 84.1074 -85.1642
5 165.631 80.3489 -87.0097
6 -166.56 85.887 -88.9734
7 -94.1859 74.6623 -93.2596
8 -64.3 61.5151 -94.3371
9 -92.8575 75.8526 -94.3949
10 -69.0009 60.6215 -95.082
11 132.618 88.5232 -95.1925
12 -53.0789 101.899 -95.3451
13 -79.4931 113.231 -96.7518
14 -12.9755 72.3378 -97.3143
15 153.149 86.7897 -97.3893
16 117.931 86.9377 -97.5299
17 -166.56 85.887 -97.5702
18 105.944 79.1119 -97.7007
19 -46.8193 102.77 -98.0014
20 113.947 86.9623 -98.0453
21 117.766 86.9508 -98.387
22 153.199 86.7898 -98.8783
23 114.134 86.9576 -99.5851
24 -12.2137 70.6309 -99.9299
25 113.958 86.9452 -100.407
29 25
1 173.209 82.0807 -74.4227
2 174.808 82.3249 -80.5521
3 -81.1144 84.7244 -86.6489
4 -82.5013 84.8005 -89.0487
5 -178.675 85.1317 -89.9733
6 -56.5278 74.8228 -95.9286
7 146.254 85.4561 -96.2515
8 -162.363 86.2527 -96.4388
9 169.792 82.0839 -96.4461
10 -94.5278 70.0479 -97.5898
11 -47.0317 71.2315 -98.4187
12 -96.703 69.6166 -98.429
13 -108.795 78.1997 -98.5061
14 -106.125 80.106 -99.7948
15 129.827 65.9694 -102.588
16 -108.753 86.6957 -103.586
17 -105.516 62.5243 -104.449
18 -95.4122 63.9613 -105.218
19 128.353 63.4041 -105.224
20 169.792 82.3314 -105.327
21 -157.982 76.8264 -106.081
22 -101.521 63.2059 -106.37
23 -141.974 56.9974 -106.795
24 -77.5685 87.4187 -107.422
25 -161.975 86.3224 -107.578
30 25
1 -86.8963 85.0603 -89.0658
2 -88.1095 85.1376 -94.4945
3 -65.0094 71.6762 -95.7409
4 -79.308 87.9113 -96.6271
5 -160.643 86.5382 -97.0013
6 151.934 85.6156 -97.1795
7 -79.2765 87.9113 -98.1976
8 -70.0748 72.3343 -98.9545
9 -155.392 77.5689 -99.8858
10 -110.974 86.9024 -100.327
11 -108.664 74.0311 -100.674
12 -109.88 73.6659 -101.467
13 -116.763 80.575 -101.624
14 -160.313 86.5984 -102.971
15 -115.106 82.1901 -103.104
16 -102.148 87.458 -104.106
17 93.2174 92.0056 -104.59
18 153.065 85.671 -105.012
19 105.859 50.8953 -105.99
20 -111.474 86.9456 -106.472
21 98.0511 92.5581 -106.815
22 -179.779 67.2003 -106.825
23 -102.154 87.4232 -106.856
24 -114.625 68.3365 -106.896
25 -154.414 79.2896 -107.624
31 25
1 -91.9368 85.3944 -89.4912
2 -86.7592 73.5012 -97.321
3 -92.9897 85.4691 -97.8836
4 157.179 85.8011 -98.1872
5 -91.3371 72.4542 -101.203
6 158.193 85.8588 -102.468
7 107.336 84.6025 -102.748
8 -116.681 76.9932 -103.565
9 -121.662 82.2219 -104.269
10 -117.414 76.6551 -104.286
11 111.829 85.2691 -105.089
12 -120.547 83.6134 -105.899
13 -74.9832 86.7926 -107.496
14 178.378 87.2057 -107.721
15 -143.573 75.3542 -107.748
16 158.747 43.86 -107.948
17 -140.344 66.1841 -108.578
18 -75.8329 86.8204 -108.711
19 -120.206 72.4305 -109.246
20 -82.2944 44.1098 -109.408
21 -112.931 87.0884 -110.337
22 -116.46 74.1079 -110.696
23 -118.609 73.1946 -111.429
24 -104.881 87.5419 -112.48
25 -161.042 71.3272 -113.085
32 25
1 -96.4833 85.6259 -88.0841
2 -97.4101 85.6989 -96.2862
3 160.951 86.0275 -98.1208
4 -104.103 75.3803 -99.7676
5 -115.005 87.224 -102.766
6 83.7711 87.3105 -103.339
7 -106.832 74.6535 -103.616
8 125.613 83.0532 -105.241
9 -122.916 78.8178 -106.063
10 -126.154 83.2364 -106.58
11 161.859 86.0833 -106.66
12 -123.385 78.5036 -106.738
13 -179.991 87.3415 -107.341
14 -125.389 84.4751 -108.301
15 -78.6811 86.8502 -108.708
16 -144.574 77.1337 -108.756
17 -141.58 68.7236 -109.356
18 -79.482 86.8799 -109.468
19 141.474 33.2976 -110.146
20 -101.437 49.7516 -110.359
21 -125.154 74.9075 -111.435
22 170.639 45.2762 -112.89
23 -122.694 76.6002 -113.135
24 -179.563 87.3735 -113.165
25 -124.102 75.6947 -113.725
