# <Transmitter Set: Tx: 2 TX1 - Point 1> 
# <Receiver Set: Rx: 11 32 Extra Receivers > 
# <number of receiver points>
# <receiver point number> <number of paths for this point>
# <path number> <arrival phi(deg)> <arrival theta(deg)> <received power(dBm)>
 32
1 25
1 -126.294 85.9962 -83.4327
2 -129.96 86.0054 -97.3609
3 -129.956 86.0054 -99.5457
4 -98.6149 86.6081 -100.178
5 -123.11 85.9996 -100.798
6 -98.5908 86.6081 -101.121
7 100.086 87.0393 -102.907
8 99.8942 87.0394 -104.718
9 153.495 88.167 -105.237
10 25.3738 86.6349 -108.581
11 25.7555 86.6505 -110.246
12 -92.6321 85.1735 -110.367
13 90.195 82.1212 -110.898
14 -76.7758 88.6402 -111.206
15 25.7937 86.6351 -111.431
16 -103.394 86.0742 -112.465
17 89.3829 88.3258 -112.793
18 -91.9974 86.9965 -112.951
19 -100.583 86.9177 -113.562
20 -75.0092 74.6404 -113.595
21 -154.454 87.5212 -113.992
22 -92.0217 86.9965 -114.263
23 152.056 88.5509 -114.29
24 95.4261 87.331 -114.751
25 -154.438 87.5217 -114.847
2 25
1 -59.5589 81.6871 -76.9099
2 -124.613 84.2144 -92.8039
3 -124.552 84.2144 -93.8006
4 90.4866 83.7272 -94.6183
5 -139.111 86.1 -101.017
6 -49.6473 81.8593 -101.085
7 -13.1423 86.1354 -101.425
8 121.455 87.8247 -101.885
9 -139.069 86.1 -102.011
10 -13.2037 86.1355 -102.903
11 -49.6666 81.8594 -104.756
12 91.121 83.7272 -105.221
13 -152.704 84.2444 -105.405
14 -159.473 88.9647 -105.96
15 89.6788 83.7273 -106.296
16 -152.506 84.2448 -108.084
17 -100.389 82.7569 -109.687
18 7.88228 86.874 -111.364
19 119.491 87.8264 -112.677
20 7.8377 86.874 -112.826
21 -80.7978 82.535 -112.85
22 120.525 87.9013 -113.131
23 -27.3363 80.5234 -113.704
24 -13.3067 86.0653 -114.326
25 -134.498 88.5243 -114.796
3 25
1 -73.5017 84.2036 -80.0693
2 -73.4987 84.2036 -85.6833
3 136.215 87.526 -94.1463
4 -133.583 84.8553 -101.838
5 -133.501 84.8553 -102.899
6 -156.695 89.0012 -103.964
7 136.084 87.526 -104.38
8 -30.6751 85.924 -104.591
9 -72.8361 84.2045 -104.957
10 120.685 87.6273 -105.55
11 18.0638 88.1488 -106.016
12 -30.5889 85.9241 -106.785
13 135.975 87.5261 -108.247
14 -156.387 91.5565 -108.763
15 -156.695 91.5547 -108.91
16 117.147 88.3024 -111.035
17 -156.334 89 -111.839
18 -125.27 86.9613 -113.602
19 -48.4201 84.3144 -114.281
20 -121.677 85.578 -114.307
21 32.7324 80.646 -114.447
22 -100.566 85.0198 -114.94
23 -156.696 91.4051 -115.296
24 137.403 87.5263 -115.367
25 -29.2684 85.9811 -115.49
4 25
1 -66.4958 84.0922 -79.8996
2 133.041 87.5844 -99.2303
3 -156.814 88.9798 -103.619
4 75.5007 88.5149 -103.943
5 -75.3109 84.1071 -107.201
6 -63.491 84.1111 -107.924
7 100.139 89.0414 -109.743
8 18.4682 88.2171 -109.926
9 68.8829 87.6312 -110.124
10 81.2786 88.5579 -110.526
11 81.2727 88.5579 -111.265
12 -113.125 84.3016 -111.645
13 -80.7031 88.612 -112.598
14 -156.579 88.9786 -112.744
15 -41.9851 84.9583 -114.293
16 75.3486 88.515 -115.145
17 -91.1876 84.7027 -115.222
18 32.0156 80.9519 -115.251
19 68.5918 87.6312 -115.807
20 81.4099 88.5415 -116.334
21 142.049 87.6418 -116.455
22 112.457 75.4815 -116.509
23 75.4198 88.515 -116.533
24 142.121 90.8399 -116.714
25 -108.705 84.5721 -116.946
5 25
1 -39.277 83.1147 -78.5448
2 -37.329 83.1151 -92.5844
3 -23.7354 83.6659 -93.8523
4 -23.7685 83.6659 -95.1936
5 -40.6629 83.1159 -96.7455
6 123.04 87.708 -100.039
7 65.4371 83.2771 -100.353
8 -88.7986 86.1425 -103.907
9 -88.8294 86.1425 -105.016
10 -41.6283 83.1183 -105.02
11 -111.344 86.0076 -105.536
12 34.0836 84.2336 -105.561
13 -111.389 86.0076 -106.849
14 123.165 87.708 -108.492
15 30.1123 86.6393 -108.945
16 -33.7047 83.1183 -109.229
17 122.457 87.708 -109.706
18 -69.1409 83.4682 -109.812
19 160.454 89.0436 -109.941
20 137.182 89.0222 -109.99
21 61.3223 83.2777 -110.049
22 33.4761 84.234 -110.314
23 44.0426 88.3168 -111.243
24 44.0254 88.3168 -111.93
25 133.777 89.2917 -112.642
6 25
1 -19.7612 84.0506 -79.837
2 -92.9036 87.1279 -94.4859
3 -92.8429 87.1279 -96.0017
4 24.0689 84.8263 -100.315
5 24.1567 84.8264 -101.926
6 35.8836 85.6663 -103.271
7 -159.338 126.098 -105.897
8 44.3428 86.338 -107.211
9 36.1203 85.6663 -107.361
10 44.3799 86.3381 -107.842
11 -170.575 88.2924 -108.033
12 -170.571 88.2924 -108.444
13 -130.995 159.026 -109.538
14 87.6079 88.6313 -111.072
15 -5.59874 84.1509 -111.131
16 70.9512 88.7396 -111.335
17 -130.531 84.4565 -113.604
18 -1.54893 84.344 -113.763
19 -106.848 107.092 -114.155
20 -7.69982 84.1542 -114.498
21 146.434 126.427 -115.581
22 -81.5622 85.2235 -115.82
23 53.2981 86.3712 -115.843
24 73.1815 89.4724 -116.651
25 -77.8004 102.851 -116.782
7 25
1 -25.2976 87.059 -86.328
2 -66.542 87.1207 -87.7834
3 -150.083 95.0764 -105.496
4 -1.81588 87.4327 -105.663
5 -11.0126 88.0338 -105.707
6 -1.82683 87.4327 -106.16
7 -144.624 88.6343 -106.82
8 -10.9893 88.0338 -107.04
9 -103.001 88.7682 -109.281
10 13.6304 88.7409 -109.659
11 -8.77903 87.2614 -110.296
12 -24.1873 87.0601 -110.318
13 -67.9742 87.1213 -110.39
14 -109.721 88.7784 -111.079
15 -20.9695 87.0832 -111.098
16 -24.881 92.2356 -111.668
17 -8.72423 87.2614 -112.095
18 -27.9896 87.0609 -112.36
19 -23.7352 87.0618 -113.186
20 -137.654 94.5644 -113.311
21 -25.3583 92.8788 -113.735
22 117.502 88.7489 -114.132
23 -12.1932 87.5881 -114.292
24 -139.71 92.3047 -114.536
25 -106.792 88.773 -115.204
8 25
1 -26.7279 85.7827 -82.9535
2 -25.9436 85.7831 -100.835
3 -26.646 86.4632 -106.138
4 -25.7325 85.7834 -106.613
5 -24.9845 85.7856 -107.057
6 -47.7653 85.9745 -107.554
7 -20.2514 85.8285 -108.364
8 -47.7653 96.2522 -109.438
9 -47.7512 85.9745 -109.869
10 -60.2027 86.3647 -111.474
11 -47.7512 96.2521 -111.753
12 -106.562 139.041 -112.951
13 -49.6987 85.9241 -113.149
14 -60.2027 95.6485 -113.456
15 -20.238 85.8286 -113.615
16 -60.1832 86.3647 -113.789
17 18.4748 88.5972 -113.797
18 -26.5958 89.4142 -114.776
19 -49.6987 96.3301 -115.018
20 -27.2765 89.4145 -115.032
21 17.0176 88.6204 -115.048
22 -106.516 119.764 -115.071
23 -12.1514 85.9014 -115.181
24 -47.9825 88.5041 -115.341
25 -52.3317 85.8329 -115.734
9 25
1 10.9395 85.2364 -81.8389
2 -133.121 87.8914 -98.0234
3 -133.083 87.8914 -98.868
4 -133.226 87.9403 -101.106
5 -133.345 87.9889 -103.699
6 -9.69039 85.5809 -105.907
7 86.9191 92.838 -107.456
8 -9.70817 85.5809 -107.824
9 86.932 92.838 -108.048
10 32.8048 85.3898 -110.433
11 135.416 113.322 -111.172
12 -4.95733 85.3833 -112.587
13 9.65921 87.7551 -112.751
14 138.173 88.2273 -113.985
15 -55.6454 86.2137 -114.425
16 138.157 88.2274 -114.951
17 48.6563 85.8574 -114.972
18 9.70599 87.7551 -115.18
19 12.6811 84.2008 -115.231
20 32.8307 85.3898 -115.648
21 133.673 141.036 -115.704
22 109.136 134.426 -115.902
23 165.423 140.016 -116.116
24 156.752 101.205 -116.189
25 11.2864 89.3936 -116.516
10 25
1 -1.31496 84.2861 -80.1976
2 -14.7862 84.3136 -102.087
3 -38.6122 85.0807 -106.283
4 -38.5807 85.0808 -108.353
5 -14.7665 84.3136 -108.536
6 25.6395 85.1198 -109.179
7 -92.861 86.9726 -109.893
8 -51.6172 85.8166 -110.654
9 -92.8227 86.9726 -111.208
10 25.6893 85.12 -112.189
11 -51.4832 85.8167 -113.121
12 71.0406 88.8216 -113.513
13 4.85822 83.3914 -114.289
14 39.6854 87.8574 -114.487
15 67.9766 86.6389 -115.452
16 -131.024 88.1048 -115.694
17 -131.162 88.1444 -116.65
18 -36.3893 85.3349 -116.801
19 88.2804 114.779 -116.811
20 -130.997 88.1048 -116.818
21 99.9655 99.8085 -116.952
22 -85.0363 86.6192 -117.109
23 -131.311 88.1839 -117.508
24 67.8742 86.639 -117.549
25 77.6503 117.146 -117.621
11 25
1 -11.3622 83.599 -91.7349
2 10.8509 83.9769 -98.9147
3 10.7777 83.977 -100.655
4 71.8638 88.7712 -104.034
5 -135.631 159.295 -104.529
6 -55.3443 85.4505 -104.996
7 -55.3784 85.4506 -106.462
8 14.3689 84.2462 -108.06
9 -176.217 128.096 -109.83
10 25.8382 145.84 -109.85
11 17.4552 84.038 -110.07
12 170.332 116.84 -110.111
13 -95.779 86.9258 -110.694
14 157.354 107.343 -111.667
15 14.3217 84.2465 -111.808
16 -95.852 86.9259 -112.29
17 45.0367 86.2514 -113.06
18 -84.9558 84.6097 -113.466
19 -1.65786 82.7701 -113.772
20 131.64 102.904 -113.948
21 88.299 88.674 -114.028
22 17.4966 84.0382 -114.174
23 6.33028 84.7275 -114.949
24 88.2824 88.674 -115.047
25 43.3326 85.0416 -116.081
12 25
1 13.4984 86.1461 -83.7862
2 40.1288 86.5402 -96.254
3 40.1455 86.5402 -96.9344
4 4.93985 86.1975 -101.262
5 4.94556 86.1975 -102.82
6 29.0823 86.2576 -107.823
7 -6.94878 86.4035 -110.044
8 29.0943 86.2576 -110.285
9 107.205 87.8171 -110.88
10 -6.89906 86.4036 -111.867
11 29.0823 95.5334 -113.006
12 63.3878 86.3875 -113.193
13 0.197687 86.3072 -114.465
14 67.8335 91.7212 -115.214
15 29.0943 95.5334 -115.469
16 63.0975 86.3877 -116.098
17 67.8327 88.9319 -116.168
18 -27.3119 88.1954 -117.055
19 14.5489 85.24 -117.595
20 -147.697 74.6191 -117.773
21 -152.442 84.805 -118.194
22 32.1946 86.7101 -119.095
23 0.20531 86.3072 -119.781
24 -79.0714 88.3804 -119.861
25 -36.301 86.689 -120.072
13 25
1 13.4733 85.2731 -81.9092
2 -5.21854 85.5496 -101.415
3 -5.20383 85.5496 -102.693
4 0.632166 85.3678 -105.346
5 -51.1045 86.0987 -106.839
6 0.619544 85.3678 -108.381
7 -51.2137 86.0988 -108.731
8 87.0961 92.7902 -110.435
9 87.1084 92.7902 -111.072
10 39.2167 85.4986 -114.938
11 -135.955 87.8622 -114.955
12 14.6994 84.4936 -116.211
13 -135.994 87.8623 -116.287
14 118.961 103.422 -116.549
15 70.2888 88.8999 -116.726
16 123.647 115.752 -117.073
17 135.833 116.302 -117.361
18 52.3386 85.9747 -117.39
19 112.918 114.068 -117.468
20 142.839 99.1877 -118.336
21 147.883 115.483 -118.4
22 104.451 111.825 -118.405
23 -158.66 88.8257 -118.779
24 -158.66 88.8257 -118.779
25 37.3448 86.142 -118.883
14 25
1 -4.39615 84.3134 -80.2403
2 21.2286 85.0374 -94.8622
3 21.274 85.0374 -96.111
4 -43.129 85.2319 -96.4628
5 -43.1622 85.2319 -97.4112
6 -31.9779 84.4437 -109.775
7 12.2628 85.3555 -110.265
8 -92.48 87.0563 -111.519
9 104.033 105.181 -112.2
10 -54.3347 85.9479 -112.233
11 -92.4447 87.0564 -112.967
12 12.3276 85.3557 -113.059
13 67.0158 107.887 -113.384
14 27.5266 84.5239 -113.47
15 2.802 83.386 -114.372
16 70.8075 88.8093 -114.515
17 -148.492 87.2376 -114.598
18 -54.466 85.948 -114.748
19 111.117 141.907 -115.768
20 -40.103 85.4644 -116.087
21 45.866 88.5586 -116.268
22 45.879 88.5586 -116.935
23 25.4613 84.9018 -116.981
24 19.6928 84.824 -117.307
25 -85.2637 86.7236 -117.455
15 25
1 -14.4986 83.4633 -79.0021
2 -57.9064 83.558 -100.379
3 13.8181 83.83 -105.049
4 -58.1968 83.5581 -105.259
5 72.0601 88.7619 -105.848
6 -145.683 127.548 -106.726
7 13.8581 83.8301 -107.548
8 7.36813 83.7814 -109.058
9 11.7435 84.0585 -109.936
10 -124.525 148.19 -110.458
11 -126.537 163.997 -112.07
12 -175.112 111.104 -112.409
13 7.30268 83.7817 -112.8
14 173.641 105.211 -113.022
15 -166.654 116.68 -113.041
16 144.689 103.48 -113.358
17 44.9103 86.1555 -113.52
18 -91.8767 84.7448 -113.772
19 -2.8996 82.7208 -113.806
20 122.659 140.67 -113.961
21 -97.4418 86.9758 -114.698
22 11.6984 84.0589 -115.365
23 42.9223 84.873 -115.483
24 44.706 86.1557 -116.732
25 -97.5129 86.976 -116.871
16 25
1 -163.186 86.3522 -101.776
2 -174.276 87.6894 -115.255
3 -174.221 87.6894 -117.577
4 170.111 87.6571 -118.768
5 -60.1033 88.6565 -120.601
6 170.092 87.6571 -120.916
7 -164.033 87.3866 -121.504
8 -51.3152 73.5473 -121.646
9 -53.0451 73.0798 -122.224
10 172.164 86.4066 -122.961
11 45.0076 88.5974 -123.074
12 -164.017 87.8471 -123.55
13 172.122 86.4066 -124.239
14 167.119 88.5225 -124.619
15 166.934 88.9903 -125.418
16 -144.83 77.8591 -126.285
17 -175.69 93.2412 -127.123
18 -105.073 99.8366 -127.958
19 -159.333 94.1853 -128.26
20 175.96 63.6711 -128.26
21 -163.501 93.8147 -128.355
22 -170.217 92.6655 -128.388
23 -176.776 92.9257 -128.398
24 -173.899 93.7621 -128.514
25 -102.104 100.646 -128.518
17 25
1 -161.093 86.7361 -100.469
2 149.391 87.5928 -108.509
3 -161.339 86.7361 -108.96
4 149.406 87.5928 -115.388
5 149.373 87.5928 -115.539
6 -82.5837 87.4464 -117.297
7 -82.6187 87.4464 -118.804
8 -80.2038 87.8797 -119.911
9 -161.07 87.7944 -120.927
10 -80.1727 87.8798 -121.218
11 -90.5405 73.8905 -123.936
12 -91.657 73.3822 -124.637
13 143.582 99.2266 -127.028
14 136.87 97.8324 -127.12
15 168.098 87.623 -128.057
16 -144.566 80.6919 -128.797
17 -105.416 88.3899 -128.992
18 168.131 87.6231 -129.346
19 -161.054 88.287 -129.94
20 -105.427 88.3899 -130.32
21 141.959 52.1593 -131.298
22 -105.352 88.7653 -131.435
23 146.367 53.7306 -131.509
24 -156.742 92.5245 -131.848
25 -160.219 92.0749 -131.92
18 25
1 89.8228 72.0216 -107.66
2 88.7251 80.8452 -111.377
3 174.527 86.4274 -111.603
4 138.557 89.2164 -112.516
5 136.042 89.399 -112.762
6 174.587 86.4275 -113.176
7 93.542 88.7528 -114.457
8 138.688 89.2164 -115.164
9 -31.1124 88.7033 -116.433
10 -31.0767 88.7033 -117.714
11 75.3742 87.8529 -119.466
12 -171.091 67.3834 -119.734
13 93.879 85.2967 -119.907
14 -174.017 67.1067 -120.051
15 75.391 87.8529 -120.526
16 116.724 89.2793 -121.285
17 86.724 87.6014 -121.339
18 121.999 88.8669 -121.482
19 144.071 87.4584 -121.917
20 85.1353 85.9289 -121.988
21 122.008 88.8669 -122.751
22 110.342 90.9126 -123.526
23 86.6877 87.6015 -123.621
24 116.12 89.1854 -123.676
25 111.33 89.5602 -123.73
19 25
1 -145.578 83.1202 -78.5518
2 -60.6709 73.4511 -99.1127
3 29.852 87.9767 -100.326
4 141.74 88.2927 -101.442
5 -129.173 83.3401 -102.151
6 -158.934 83.1813 -106.371
7 171.591 87.0749 -109.247
8 -140.352 88.6999 -109.627
9 163.035 84.3615 -110.019
10 -110.439 87.91 -110.171
11 -121.125 71.5804 -110.331
12 68.5127 87.5702 -110.752
13 131.031 88.5177 -110.949
14 131.018 88.5177 -112.05
15 68.5883 87.5703 -112.08
16 -117.256 58.8956 -112.182
17 109.276 88.7139 -112.26
18 110.71 88.689 -112.768
19 163.118 84.3617 -112.826
20 109.292 88.7139 -113.129
21 -74.567 76.4717 -113.41
22 110.726 88.689 -113.527
23 2.17631 52.2217 -113.556
24 171.738 87.075 -113.667
25 -70.659 76.4656 -114.483
20 25
1 -145.094 86.3554 -84.3059
2 -135.894 86.4071 -86.6005
3 -147.698 86.3611 -92.4791
4 -147.701 86.3611 -93.6746
5 -155.556 86.7955 -105.167
6 -155.577 86.7955 -106.874
7 11.0768 81.4135 -107.862
8 -99.791 68.4263 -109.289
9 19.996 61.6878 -109.843
10 -116.279 86.7578 -110.325
11 -121.781 87.8456 -110.787
12 -135.903 87.2476 -110.992
13 -116.298 86.7578 -111.497
14 -121.796 87.8456 -111.684
15 -126.769 86.9104 -112.425
16 16.4612 92.5976 -113.154
17 159.359 86.6794 -113.78
18 133.965 87.9737 -114.28
19 24.4076 73.6934 -114.379
20 18.3262 53.1294 -114.72
21 -165.63 86.5416 -114.741
22 11.3567 76.5447 -114.871
23 133.94 87.9737 -115.215
24 98.2561 82.6861 -116.002
25 159.195 86.6795 -116.256
21 25
1 -144.704 88.086 -90.5262
2 -153.279 88.1101 -99.8915
3 -153.269 88.1101 -100.475
4 -157.397 88.5693 -101.104
5 -157.381 88.5693 -102.438
6 -140.617 88.0896 -103.132
7 -140.615 88.0896 -104.728
8 -160.571 88.1586 -107.833
9 -160.582 88.1586 -108.667
10 -145.641 88.087 -109.791
11 -142.392 88.087 -114.12
12 -163.106 88.8425 -114.432
13 -150.91 88.1269 -115.456
14 -163.073 88.8425 -115.77
15 -150.906 88.1269 -117.48
16 -145.641 88.087 -118.611
17 -165.467 88.1828 -119.587
18 159.704 85.3166 -120.247
19 -151.551 88.1181 -123.143
20 -138.31 88.0881 -123.547
21 -150.506 88.15 -123.831
22 -152.418 88.1139 -125.462
23 -165.466 88.1828 -125.717
24 -167.923 82.7008 -125.953
25 -150.07 88.207 -127.064
22 25
1 -162.833 79.8502 -77.1372
2 179.82 79.9072 -82.5508
3 179.805 79.9072 -90.8361
4 179.789 79.9072 -102.08
5 89.6042 88.243 -104.212
6 44.8961 82.3172 -105.284
7 -68.245 82.3308 -107.156
8 173.236 88.2213 -108.422
9 147.257 83.792 -109.812
10 67.139 87.8746 -109.869
11 46.6523 81.8441 -110.806
12 179.771 79.9072 -110.863
13 102.938 88.7753 -111.534
14 147.337 83.7921 -112.05
15 113.998 84.8549 -113.353
16 135.691 88.0307 -113.683
17 -164.618 62.5056 -113.879
18 101.573 83.3618 -114.01
19 179.856 79.9072 -115.157
20 -68.2563 82.3308 -116.325
21 -158.816 88.8757 -116.355
22 85.475 88.7044 -117.325
23 -178.343 87.481 -117.352
24 -166.286 53.6544 -118.325
25 -68.2334 82.3308 -118.561
23 25
1 161.921 86.6298 -110.445
2 94.4415 78.0571 -111.552
3 161.893 86.6298 -112.311
4 93.8492 84.1099 -115.88
5 90.2759 87.9917 -117.416
6 89.149 87.863 -119.574
7 90.3211 87.9917 -119.723
8 89.1179 87.8631 -121.01
9 96.7456 88.8292 -121.843
10 113.786 88.6356 -121.986
11 118.144 89.3289 -123.299
12 97.0883 87.0166 -124.391
13 162.682 89.2888 -124.72
14 86.151 87.4303 -124.872
15 129.062 88.6638 -124.899
16 130.057 86.0252 -126.352
17 129.051 88.6638 -126.465
18 124.132 86.0153 -126.469
19 109.532 89.5161 -126.758
20 73.4493 88.1933 -128.027
21 86.1163 87.4305 -128.048
22 111.678 86.4685 -128.09
23 120.764 88.9276 -128.639
24 73.4625 88.1933 -128.688
25 142.284 86.5083 -128.881
24 25
1 43.536 83.0875 -102.058
2 35.0648 66.5942 -103.137
3 32.4427 78.1116 -106.537
4 136.17 89.37 -108.955
5 138.804 89.1664 -111.756
6 147.425 85.2559 -112.679
7 37.6193 82.9038 -113.352
8 64.4389 86.7769 -113.477
9 -97.9104 93.5576 -114.031
10 64.3377 86.777 -115.775
11 75.7005 88.3547 -116.159
12 147.337 85.2564 -116.16
13 75.8195 88.3547 -116.768
14 57.3597 85.1184 -117.299
15 70.2932 88.521 -117.471
16 100.792 88.9479 -117.529
17 -51.8077 92.397 -117.552
18 111.845 89.732 -117.594
19 -91.8333 96.3006 -117.804
20 -56.4305 99.5774 -117.837
21 67.7701 80.278 -117.95
22 70.2852 88.521 -117.988
23 34.3949 83.4778 -118.486
24 128.168 82.1294 -118.558
25 -44.045 101.647 -119.39
25 25
1 -164.705 70.1651 -70.1957
2 25.7267 82.0225 -83.107
3 25.7513 82.0225 -88.1878
4 174.456 87.0383 -99.1375
5 65.1009 86.4644 -99.6335
6 174.428 87.0384 -100.074
7 25.702 82.0225 -100.601
8 36.4513 88.3086 -100.603
9 19.3 58.4567 -101.5
10 31.1494 88.3103 -101.841
11 25.7759 82.0225 -103.219
12 15.3864 73.1779 -103.762
13 65.1235 86.4644 -106.209
14 -145.62 88.5049 -106.724
15 178.792 88.7034 -107.303
16 154.467 86.5713 -107.808
17 64.9999 86.4644 -107.825
18 131.734 88.3208 -108.106
19 154.401 86.5713 -109.327
20 20.6127 78.4364 -109.409
21 160.195 85.2823 -109.57
22 25.6774 82.0226 -110.287
23 25.8005 82.0226 -111.903
24 160.28 85.2827 -112.04
25 70.9989 88.4591 -112.978
26 25
1 102.426 82.0819 -84.2318
2 93.5713 82.2679 -86.9824
3 102.444 82.0819 -91.4228
4 93.5628 82.2679 -94.9386
5 102.408 82.0819 -98.3608
6 93.5801 82.2679 -99.8841
7 94.2254 54.173 -104.175
8 102.462 82.0819 -105.14
9 90.3575 63.7331 -106.516
10 158.207 86.1554 -108.006
11 93.5548 82.2679 -108.469
12 102.39 82.0819 -109.158
13 158.268 86.1555 -109.798
14 154.163 87.0595 -110.746
15 154.112 87.0596 -112.279
16 29.6123 94.6055 -112.875
17 102.48 82.082 -113.273
18 -159.136 86.7216 -113.412
19 103.727 77.6228 -113.447
20 50.9217 97.236 -114.003
21 69.6352 88.8156 -114.686
22 87.8889 89.2252 -115.364
23 102.371 82.082 -115.954
24 102.292 88.659 -116.01
25 -159.121 87.299 -116.643
27 25
1 119.189 87.2961 -102.318
2 156.659 86.4678 -103.102
3 91.2625 87.3201 -103.206
4 156.714 86.4678 -104.676
5 91.219 87.3201 -104.78
6 133.846 88.4579 -109.268
7 113.955 62.0676 -109.729
8 119.237 87.2961 -109.894
9 119.095 87.2961 -111.274
10 82.8691 100.364 -113.715
11 113.101 71.4071 -113.777
12 153.275 87.248 -113.92
13 153.23 87.248 -115.701
14 85.2413 80.8846 -117.395
15 83.4575 81.1856 -117.473
16 124.256 88.4725 -118.284
17 -163.799 86.9769 -118.413
18 -174.971 87.5553 -119.238
19 87.2669 86.5976 -120.396
20 123.788 89.9053 -120.724
21 77.2882 103.627 -120.827
22 77.236 66.6537 -120.896
23 -163.781 87.5094 -120.907
24 122.505 91.2104 -121.191
25 -175.032 87.5553 -121.376
28 25
1 119.166 87.4419 -102.85
2 153.199 86.668 -106.087
3 153.149 86.6681 -107.648
4 119.193 87.4419 -109.867
5 115.291 68.3562 -111.938
6 119.064 87.4419 -112.261
7 113.1 88.5139 -113.741
8 114.897 78.6138 -115.075
9 -95.7419 87.1588 -116.047
10 -95.7008 87.1588 -117.428
11 -52.515 124.072 -117.98
12 150.551 87.3755 -118.915
13 -67.3322 125.286 -119.304
14 123.848 88.52 -119.305
15 -38.1081 124.202 -119.563
16 -157.34 87.5364 -119.575
17 112.779 88.5139 -120.273
18 -90.3039 119.485 -120.309
19 -63.0076 90 -120.699
20 132.968 88.5049 -121.436
21 -86.5828 121.118 -121.439
22 150.508 87.3756 -121.692
23 123.239 89.9155 -121.787
24 122.097 91.0788 -122.25
25 -73.7156 123.841 -122.289
29 25
1 -163.429 86.4118 -102.975
2 45.2656 88.5906 -113.269
3 -174.335 87.7142 -114.524
4 -174.28 87.7142 -116.829
5 170.311 87.6821 -118.579
6 -98.9794 87.3571 -120.043
7 170.292 87.6821 -120.647
8 -99.0172 87.3571 -121.259
9 -56.6106 73.6525 -121.289
10 -58.433 73.2227 -121.906
11 -164.272 87.4509 -123.278
12 -164.256 87.9001 -125.182
13 -77.6056 87.3405 -125.402
14 -146.345 78.2711 -126.612
15 172.394 86.4654 -126.938
16 -77.5685 87.3406 -127.064
17 172.353 86.4654 -127.671
18 -175.819 93.0374 -127.703
19 176.222 64.4134 -128.427
20 -98.9794 89.3583 -128.455
21 -160.61 93.9056 -128.899
22 -176.837 92.7439 -128.969
23 -164.473 93.5606 -128.991
24 -170.718 92.489 -129.014
25 -168.247 89.5257 -129.094
30 25
1 -161.698 86.6727 -90.5416
2 -81.6037 87.4185 -112.931
3 -81.6392 87.4185 -114.598
4 -162.41 87.7368 -117.44
5 -162.398 88.1357 -119.359
6 -161.675 87.727 -120.272
7 -79.308 87.8615 -123.071
8 -85.1912 73.6382 -123.093
9 -86.4893 73.1303 -123.801
10 -79.2765 87.8615 -124.592
11 148.259 87.5851 -126.021
12 -77.4862 88.781 -126.786
13 148.226 87.5851 -127.449
14 -105.042 88.3744 -127.697
15 -163.353 88.6914 -127.94
16 -145.226 80.2452 -128.36
17 -105.054 88.3744 -128.884
18 -161.658 88.2381 -129.449
19 -163.349 91.9136 -131.079
20 123.138 54.7945 -131.098
21 118.765 53.2746 -131.131
22 -158.466 92.6931 -131.307
23 -155.474 92.922 -131.356
24 -156.546 92.7581 -131.588
25 -162.192 92.2368 -131.683
31 25
1 149.807 88.0096 -124.851
2 -102.848 74.8667 -126.076
3 149.779 88.0096 -126.105
4 -103.601 74.3901 -126.759
5 152.049 87.6332 -128.033
6 -156.874 86.9019 -128.616
7 152.081 87.6333 -129.632
8 -172.425 94.5085 -129.705
9 -104.881 87.5909 -130.455
10 172.756 94.0267 -131.035
11 147.053 88.9093 -132.881
12 -154.839 92.1537 -133.234
13 -152.422 92.325 -133.349
14 -153.287 92.1982 -133.559
15 -104.915 87.591 -133.851
16 146.963 88.8935 -134.23
17 170.336 87.6869 -134.403
18 4.26894 87.6735 -134.579
19 -106.662 88.4239 -134.714
20 -178.812 56.0054 -134.833
21 -176.484 56.7671 -134.974
22 -149.778 92.1019 -135.446
23 -95.8584 81.8227 -135.496
24 170.368 87.687 -136.554
25 -106.672 88.4239 -136.572
32 25
1 -114.284 76.3929 -128.825
2 -114.736 75.9671 -129.476
3 -75.4357 88.012 -129.981
4 -5.42772 86.8148 -131.388
5 -75.4614 88.012 -131.785
6 -95.1962 88.1281 -133.396
7 -154.254 91.8163 -134.757
8 -152.214 91.9579 -134.891
9 -152.943 91.8519 -135.096
10 -95.1823 88.1281 -135.632
11 -163.344 92.6322 -136.101
12 -149.99 91.7678 -137.004
13 -163.344 92.6322 -137.88
14 -150.573 92.3298 -138.262
15 -165.996 62.7587 -138.273
16 -154.326 91.7862 -138.52
17 -110.127 82.9752 -138.589
18 -96.4721 87.4064 -138.595
19 -165.009 63.5285 -138.687
20 172.553 87.773 -139.4
21 -109.974 82.999 -140.023
22 -96.4449 87.4064 -140.204
23 -152.559 92.0224 -140.473
24 -19.7951 50.1017 -140.653
25 -114.715 55.7615 -140.852
