# <Transmitter Set: Tx: 1 TX2 - Point 1> 
# <Receiver Set: Rx: 9 Walk2 > 
# <number of receiver points>
# <receiver point number> <number of paths for this point>
# <path number> <arrival phi(deg)> <arrival theta(deg)> <received power(dBm)>
 18
1 25
1 -45.2128 86.9761 -78.0628
2 -36.0511 88.3733 -99.7642
3 -41.8338 86.9826 -108.987
4 -32.7699 86.9839 -109.032
5 136.227 89.1974 -110.443
6 -50.9109 86.9879 -110.882
7 -49.7062 86.9978 -111.057
8 -44.6455 90.601 -112.019
9 -43.5251 90.286 -112.138
10 -33.1419 87.0464 -114.473
11 -44.5931 90.6295 -114.881
12 -43.7568 90.2488 -115.058
13 -43.8274 88.6993 -115.799
14 -35.251 88.3733 -115.916
15 -36.2772 88.3733 -116.017
16 -36.2772 88.3673 -116.548
17 -33.2171 88.3402 -117.715
18 -34.4554 87.0458 -117.807
19 12.6831 89.1187 -118.131
20 -33.1974 87.2705 -118.839
21 -33.2094 88.3402 -119.116
22 -12.2121 90.9286 -119.182
23 -35.8772 88.9089 -119.196
24 -39.9382 88.0824 -119.362
25 12.6729 89.1187 -119.508
2 25
1 -44.651 86.7211 -77.2963
2 -6.11814 87.2948 -99.21
3 9.158 88.5184 -101.596
4 7.25873 88.0977 -104.78
5 -40.7893 86.7541 -105.773
6 7.49884 88.0934 -106.501
7 -6.12292 87.2948 -107.972
8 -40.1906 86.7315 -109.332
9 -50.7134 86.7329 -109.517
10 -1.70411 86.8167 -109.524
11 -49.4405 86.7448 -110.05
12 8.59734 88.4079 -110.546
13 -6.11325 87.2948 -110.581
14 -44.1115 90.6454 -111.338
15 -42.9114 90.3069 -111.464
16 7.25305 87.7019 -111.508
17 8.62436 88.4079 -111.769
18 8.59734 88.4196 -112.396
19 -40.7938 86.7541 -112.404
20 7.49321 87.6967 -113.032
21 -29.947 86.8178 -113.356
22 135.797 89.2136 -113.375
23 9.56555 88.4632 -113.416
24 8.62436 88.4196 -113.442
25 -26.3777 87.6385 -113.975
3 25
1 -46.1354 86.4484 -76.5469
2 121.681 86.8394 -83.3018
3 -12.7857 86.5325 -97.214
4 87.8542 96.5537 -97.3508
5 -2.55618 87.1183 -98.1122
6 8.89082 88.3531 -98.6866
7 -12.8786 86.5325 -98.7744
8 -35.7097 88.2314 -99.2667
9 10.0106 88.4179 -99.6874
10 8.91905 88.3531 -99.7643
11 117.191 81.7495 -99.9453
12 10.443 88.4741 -100.292
13 9.98316 88.4179 -100.818
14 68.9791 88.4012 -101.299
15 67.0552 88.5118 -102.29
16 69.0056 88.4012 -102.34
17 10.8355 88.4684 -102.379
18 32.7362 88.3889 -103.352
19 10.8087 88.4684 -103.495
20 111.515 88.3307 -103.824
21 32.7534 88.3889 -103.88
22 -2.5503 87.1183 -104.959
23 10.6432 88.4853 -105.316
24 136.599 89.2279 -105.501
25 111.987 88.3246 -105.779
4 25
1 -48.3734 86.1376 -75.7662
2 -66.6736 86.2197 -95.9375
3 -47.0378 86.1384 -96.7582
4 11.666 88.4239 -97.1528
5 -66.6297 86.2197 -97.4649
6 1.45187 86.9116 -97.651
7 39.8659 86.7136 -98.4712
8 108.162 93.2975 -100.014
9 124.872 87.0321 -101.134
10 -74.1425 87.7739 -101.813
11 11.8633 88.436 -102.407
12 -74.1611 87.7739 -102.55
13 1.45921 86.9116 -104.47
14 58.2309 89.1632 -104.847
15 -44.6276 86.1671 -105.281
16 113.186 88.3783 -106.082
17 -41.8083 86.1492 -106.153
18 139.672 80.3574 -106.235
19 94.1664 87.3776 -107.214
20 -61.1933 86.2216 -107.579
21 -37.021 86.1555 -107.624
22 11.4793 88.4239 -108.012
23 -45.5652 86.141 -108.369
24 67.6915 85.5616 -108.406
25 126.26 87.0324 -108.638
5 25
1 -48.2574 85.7087 -74.7937
2 109.465 87.3953 -96.8309
3 -46.3047 85.7101 -97.1654
4 12.32 86.7675 -97.2996
5 -35.6703 88.0617 -98.3882
6 109.418 87.3953 -98.6789
7 -67.3809 85.8325 -102.057
8 12.3108 86.7675 -103.033
9 114.215 92.1025 -103.462
10 -64.2848 85.824 -104.097
11 71.3905 89.2886 -104.112
12 -43.9287 85.7468 -104.154
13 98.5865 87.5172 -104.431
14 -67.3369 85.8325 -104.741
15 13.7563 88.3932 -105.479
16 69.6927 88.5318 -105.54
17 -38.2987 85.729 -106.361
18 124.952 87.2429 -106.452
19 43.2556 88.4675 -106.642
20 -24.1803 85.7529 -106.645
21 -35.7254 88.0617 -106.731
22 -92.2243 89.0185 -107.153
23 43.2381 88.4675 -107.264
24 -74.6979 85.8393 -107.513
25 -58.0765 85.7951 -107.913
6 25
1 -47.7242 85.1743 -73.7211
2 71.8827 88.5524 -93.7744
3 -68.4473 85.3338 -95.2143
4 -68.4107 85.3339 -97.3175
5 100.012 87.5721 -97.9717
6 26.0867 86.6796 -99.0166
7 -43.5468 85.1793 -99.8238
8 100.009 87.5721 -100.915
9 -73.8698 85.3553 -102.264
10 80.5093 89.5557 -104.754
11 15.9795 88.367 -105.171
12 -14.463 85.4238 -105.265
13 -73.9629 85.3555 -105.343
14 136.813 89.27 -105.977
15 117.333 91.5213 -106.106
16 -59.3683 85.2848 -106.29
17 -11.5738 88.4387 -106.509
18 -26.6543 85.231 -106.624
19 -11.583 88.4387 -106.818
20 26.0757 86.6796 -106.864
21 71.6426 88.5618 -107.33
22 -46.6722 90.8762 -107.388
23 33.8164 88.2088 -109.014
24 -45.3258 90.3518 -109.395
25 136.771 89.27 -109.882
7 25
1 -47.1803 84.4878 -72.5196
2 -17.5713 86.7293 -87.1768
3 -17.6143 86.7293 -88.8051
4 -23.1732 85.4771 -93.8396
5 73.6424 88.5824 -93.8634
6 -23.2053 85.4771 -95.1873
7 41.2804 86.6553 -97.9056
8 73.396 88.5912 -99.2821
9 -40.6143 84.5677 -100.146
10 -77.2816 84.7405 -100.309
11 77.0475 88.4437 -100.556
12 -17.5713 86.7851 -100.941
13 77.035 88.4437 -101.103
14 -37.248 84.5059 -101.883
15 -17.6143 86.7852 -102.204
16 -36.3769 85.1335 -102.501
17 41.293 86.6553 -102.685
18 -61.7293 84.6387 -103.985
19 -77.3685 84.7407 -104.827
20 -7.81571 84.8905 -104.928
21 86.7073 89.0255 -105.243
22 -2.62131 88.3039 -105.516
23 -46.1118 90.9772 -106.377
24 -40.6234 84.5678 -106.537
25 26.3464 84.7819 -106.626
8 25
1 -47.3137 83.5725 -71.1491
2 -8.94227 83.6539 -94.4738
3 -39.1276 83.6872 -96.7919
4 -68.149 83.8265 -97.399
5 56.4311 86.6818 -100.375
6 -7.45984 83.6546 -100.838
7 -39.1413 83.6873 -101.237
8 -68.1064 83.8267 -101.444
9 -103.849 84.155 -101.726
10 155.824 89.0169 -101.821
11 -13.6862 86.4723 -102.561
12 106.036 87.815 -103.02
13 -18.3582 85.0366 -104.409
14 -13.6361 86.4724 -104.488
15 -25.0269 88.6392 -105.084
16 -46.0777 91.1052 -105.239
17 106.034 87.815 -105.767
18 92.5639 89.0953 -106.067
19 -43.6845 90.5368 -106.179
20 -18.3157 85.0367 -106.262
21 -104.744 88.7166 -106.565
22 56.4181 86.6818 -106.676
23 98.971 88.402 -106.709
24 125.562 87.7278 -106.809
25 -104.744 88.7238 -107.617
9 25
1 -50.8762 82.4757 -69.7537
2 36.1448 86.9229 -92.5701
3 -50.3304 88.9194 -97.3729
4 -42.753 82.5758 -97.6844
5 77.3172 88.6201 -98.0772
6 -50.6626 88.9199 -98.2095
7 36.1044 86.9229 -99.5571
8 16.0554 87.2183 -101.238
9 36.3201 86.9229 -102.411
10 -148.367 84.2832 -102.749
11 -24.6368 88.5924 -102.84
12 -48.6077 91.2513 -104.084
13 16.0465 87.2183 -104.324
14 -45.8803 90.6087 -105.008
15 -11.5442 86.152 -105.143
16 -48.2657 91.3304 -106.369
17 98.5952 89.1525 -106.512
18 112.685 88.0818 -106.552
19 -77.7933 76.6352 -106.721
20 109.762 87.8954 -107.487
21 -42.7641 82.5759 -107.514
22 -11.4856 86.1522 -107.913
23 -46.3761 90.53 -107.919
24 -25.396 80.4319 -108.021
25 112.709 88.0818 -108.11
10 25
1 -62.3288 82.1637 -81.3818
2 -17.3755 85.8167 -82.6656
3 -17.4394 85.8167 -84.3952
4 -63.2436 82.0086 -89.4462
5 -61.165 82.1648 -92.6204
6 -36.4824 87.5162 -95.1824
7 79.0362 88.5924 -96.612
8 -37.1842 87.5025 -96.6161
9 -17.3755 85.9076 -97.4755
10 -59.8061 88.9135 -98.1485
11 -112.318 83.7575 -98.471
12 -17.4394 85.9076 -98.8946
13 -59.4717 88.914 -98.9687
14 78.7591 88.6005 -99.7421
15 83.7383 86.5177 -100.042
16 129.779 87.8702 -100.687
17 133.39 83.9592 -100.832
18 -112.217 83.7579 -101.623
19 158.972 89.0578 -102.468
20 -152.679 85.011 -103.062
21 -56.9284 91.3053 -103.697
22 14.9513 87.0047 -103.873
23 -5.63047 85.4822 -104.079
24 -36.3302 87.5162 -104.63
25 58.8749 84.6355 -104.922
11 25
1 -73.4649 82.4136 -69.6975
2 -74.3826 82.3975 -86.1968
3 133.319 87.8189 -90.906
4 -1.93813 88.015 -93.4843
5 178.412 84.4909 -95.5057
6 80.6165 88.5573 -97.6226
7 133.378 87.8189 -98.22
8 99.7993 84.0428 -98.3057
9 -81.2905 82.5055 -98.6269
10 132.839 87.8195 -98.902
11 -122.952 84.5203 -99.3712
12 132.838 87.8195 -101.084
13 -42.4674 87.2707 -101.928
14 -123.042 84.5206 -102.034
15 179.206 84.4912 -102.201
16 -1.21565 89.2291 -103.639
17 80.3233 88.5657 -103.66
18 -65.7419 91.2975 -103.853
19 -41.1256 88.538 -104.079
20 -62.893 90.6474 -104.58
21 49.4818 87.7622 -104.734
22 -0.978341 89.2293 -105.048
23 -46.6861 83.1277 -105.786
24 -65.3706 91.3835 -106.11
25 110.966 89.4236 -106.12
12 25
1 -85.5081 83.0924 -79.7061
2 -85.5081 82.9639 -88.4427
3 -84.4686 79.3038 -91.3187
4 136.498 87.8401 -91.5456
5 124.701 88.3559 -95.5274
6 121.218 86.2655 -97.0441
7 77.2981 88.2303 -97.6013
8 77.3232 88.2303 -97.7055
9 136.473 87.8401 -98.5823
10 145.516 87.9815 -99.457
11 -68.5312 86.2426 -99.5622
12 145.507 87.9815 -100.084
13 121.196 86.2655 -101.071
14 -68.6047 86.2427 -101.13
15 -61.9325 86.6267 -102.007
16 -96.2463 83.2376 -102.048
17 88.2062 88.3522 -102.167
18 124.701 88.3702 -102.419
19 88.2198 88.3522 -102.759
20 -41.0244 88.1394 -103.088
21 130.154 87.9155 -104.267
22 77.2981 88.2192 -104.503
23 77.3232 88.2192 -105.223
24 116.376 89.4048 -105.347
25 130.14 87.9155 -105.634
13 25
1 -68.1171 87.4338 -89.5238
2 -67.3582 87.4233 -90.7742
3 -91.1135 80.4296 -91.3694
4 -92.612 80.1296 -99.6008
5 -85.2591 83.6425 -100.986
6 -89.1813 80.2626 -101.056
7 20.5059 87.6694 -104.322
8 -62.3905 87.8609 -104.335
9 131.679 87.8889 -104.758
10 -164.725 84.8815 -104.893
11 -81.4782 91.1766 -105.198
12 20.5691 87.6694 -105.645
13 -39.6618 84.7798 -105.668
14 -79.0905 90.599 -105.77
15 119.081 89.0807 -105.839
16 -85.2591 83.7771 -106.08
17 -51.7047 85.2457 -106.295
18 -68.2701 86.3093 -107.162
19 -81.1578 91.2576 -107.433
20 -62.3966 87.8609 -107.446
21 20.5059 87.6968 -107.933
22 74.2019 88.2671 -108.295
23 55.7895 81.6624 -108.354
24 -79.5358 90.5184 -108.743
25 -130.932 85.6928 -108.88
14 25
1 -98.4942 84.4665 -77.2667
2 142.785 87.8712 -82.2259
3 -97.3521 84.3517 -83.2208
4 -2.14188 85.2073 -86.5147
5 -97.3499 84.4679 -86.8554
6 -154.847 84.8121 -93.4996
7 -1.99308 85.2073 -93.9039
8 -2.30243 85.2073 -93.9588
9 -97.3521 84.4679 -94.4504
10 -95.1932 88.3739 -95.5694
11 163.394 86.3965 -95.9978
12 -64.4291 85.3887 -96.3186
13 -64.4813 85.3888 -97.9973
14 -155.459 84.8123 -98.3166
15 62.2872 87.9142 -99.5734
16 163.377 86.3965 -99.9268
17 -117.209 86.6669 -101.012
18 -117.244 86.6669 -101.7
19 -154.847 84.8926 -102.574
20 15.9702 87.5391 -104.481
21 129.197 89.247 -104.987
22 -49.7276 84.796 -105.669
23 15.8986 87.5392 -105.923
24 -86.7529 91.1534 -106.337
25 52.0877 77.7653 -106.397
15 25
1 -99.1525 85.1538 -76.965
2 -98.6683 85.1541 -89.1885
3 145.734 87.8265 -89.3607
4 -93.2366 85.066 -91.2502
5 16.0784 93.6335 -92.8177
6 16.0784 87.7195 -94.2588
7 -93.2366 85.1558 -94.4653
8 -96.5412 88.8902 -96.8473
9 -177.387 86.436 -97.9594
10 -78.4455 85.3184 -100.379
11 46.4758 80.199 -101.37
12 16.0297 93.4074 -102.647
13 -78.3937 85.3184 -102.71
14 16.3132 93.5921 -102.736
15 98.8747 88.4158 -103.005
16 16.3132 87.7455 -103.17
17 98.8668 88.4158 -103.593
18 100.751 88.4277 -104.081
19 134.233 88.4997 -104.212
20 -50.9044 85.3465 -104.238
21 100.76 88.4277 -104.518
22 -78.4455 85.4196 -104.593
23 0.977588 106.159 -105.151
24 -115.092 86.9249 -105.454
25 -78.3937 85.4196 -105.855
16 25
1 -101.33 85.5624 -74.4876
2 148.931 87.8374 -90.2633
3 -102.255 85.6387 -90.7773
4 136.834 88.0931 -90.8924
5 136.819 88.0931 -92.0072
6 13.9912 87.6072 -95.9676
7 -102.996 85.566 -96.7404
8 141.82 88.5836 -96.7472
9 -99.1405 88.3543 -97.0612
10 -102.996 85.6393 -98.1628
11 156.833 87.9495 -99.1964
12 44.862 80.7319 -99.7553
13 109.626 88.3781 -102.86
14 136.819 88.1122 -103.399
15 -111.374 85.5762 -103.536
16 109.603 88.3781 -103.767
17 141.783 88.5836 -103.833
18 -69.7204 88.7265 -103.981
19 136.834 88.1122 -104.384
20 139.812 88.2414 -104.447
21 13.8902 93.2879 -104.645
22 -165.668 86.6591 -104.818
23 -83.6393 85.6159 -105.209
24 156.955 87.9496 -106.31
25 -130.147 87.8922 -106.562
17 25
1 -104.974 85.9428 -75.3144
2 -105.761 86.0101 -81.2846
3 -104.942 96.7581 -89.8987
4 12.251 87.4693 -90.6281
5 12.5593 87.5005 -95.1439
6 143.875 88.5937 -96.2548
7 -105.71 96.8412 -96.5559
8 -102.669 85.9439 -97.1209
9 -103.031 88.7027 -97.775
10 143.462 88.5904 -98.3369
11 45.4628 81.1296 -98.8648
12 20.251 87.5397 -100.516
13 -71.4613 88.7422 -100.918
14 -160.016 86.9033 -100.929
15 20.251 87.5675 -101.132
16 20.2067 87.5397 -101.692
17 20.2067 87.5675 -102.18
18 -108.066 85.9558 -104.157
19 146.29 87.8929 -104.606
20 146.29 87.8823 -104.808
21 145.89 87.9539 -104.864
22 52.4098 80.5646 -105.316
23 -101.845 85.9449 -105.663
24 13.7252 87.1166 -106.099
25 155.493 88.5997 -106.167
18 25
1 -109.629 86.1738 -75.8569
2 -110.297 86.2375 -80.7274
3 -109.629 96.0873 -81.5222
4 -110.297 95.9865 -85.8258
5 11.8169 87.2967 -88.2932
6 154.112 87.9533 -88.7262
7 -109.606 95.9161 -89.851
8 12.1517 87.3322 -92.4968
9 154.683 87.9627 -92.5611
10 -110.275 95.8285 -94.0271
11 121.96 88.2125 -94.7024
12 11.6421 87.2967 -94.7961
13 121.95 88.2125 -95.0912
14 10.5481 86.8903 -95.4181
15 -73.2925 88.7428 -96.1179
16 54.9527 81.7894 -96.5921
17 145.513 88.6227 -96.7965
18 10.7881 86.8903 -97.422
19 -107.335 88.4969 -97.7868
20 -24.6703 87.0806 -97.8433
21 -160.262 87.129 -98.0969
22 145.112 88.6193 -99.1546
23 -24.5653 87.0807 -99.2919
24 85.7874 88.2096 -99.3619
25 -24.6703 87.1236 -101.207
