#Transmitter Set: Tx: 1 TX2 - Point 1
#Receiver Set: Rx: 11 32 Extra Receivers
#Rx    	          	          	          	          	Specular	        	Diffuse 	        	DiffusePSum	Total   	        	TotalPSum
#      	X(m)      	Y(m)      	Z(m)      	Distance(m)	Pow(dBm)	Phase(deg)	Pow(dBm)	Phase(deg)	Pow(dBm)	Pow(dBm)	Phase(deg)	Pow(dBm)
1      	43.336    	24.245    	1.600     	51.770    	-73.031 	-116.951	-99.136 	177.231 	-92.456 	-72.848 	-119.486	-72.982 
2      	-0.784    	3.471     	1.600     	27.369    	-71.336 	21.005  	-101.119	24.904  	-91.837 	-71.059 	21.128  	-71.297 
3      	1.695     	16.586    	1.600     	37.859    	-73.776 	-113.707	-87.137 	153.911 	-88.727 	-73.655 	-125.923	-73.639 
4      	-2.215    	14.429    	1.600     	37.454    	-85.224 	-154.750	-90.339 	-154.010	-90.726 	-81.390 	-154.486	-84.146 
5      	-11.673   	1.036     	1.600     	33.221    	-78.183 	94.231  	-108.869	142.499 	-96.912 	-78.013 	95.456  	-78.125 
6      	-21.368   	-6.357    	1.600     	38.365    	-95.658 	151.909 	-98.342 	-133.527	-99.882 	-92.803 	-177.464	-94.265 
7      	-53.066   	12.413    	1.600     	74.727    	-109.136	63.418  	-101.841	93.960  	-102.882	-98.985 	84.873  	-101.958
8      	-32.770   	4.206     	1.600     	52.905    	-98.214 	115.835 	-100.093	74.895  	-101.734	-93.641 	97.668  	-96.616 
9      	-31.548   	-26.787   	1.600     	47.133    	-100.755	58.274  	-102.254	72.580  	-103.536	-95.519 	64.808  	-98.916 
10     	-24.923   	-17.513   	1.600     	39.863    	-99.580 	-175.794	-97.119 	-164.333	-100.866	-92.285 	-169.255	-97.165 
11     	-20.174   	-11.316   	1.600     	35.898    	-95.306 	-57.972 	-106.557	-47.031 	-99.579 	-93.231 	-55.626 	-93.927 
12     	-41.361   	-31.182   	1.600     	57.588    	-107.796	138.842 	-109.256	4.060   	-104.418	-110.605	82.835  	-102.776
13     	-31.469   	-28.787   	1.600     	47.438    	-107.386	-156.612	-100.799	-49.147 	-104.117	-101.075	-76.618 	-102.441
14     	-25.002   	-15.513   	1.600     	40.054    	-98.305 	-16.610 	-105.956	-52.542 	-100.850	-95.650 	-26.930 	-96.384 
15     	-19.216   	-10.277   	1.600     	35.203    	-92.464 	-32.982 	-95.589 	111.634 	-98.918 	-97.034 	10.162  	-91.578 
16     	40.163    	-21.943   	1.600     	25.880    	-70.893 	-7.500  	-86.199 	-74.060 	-85.824 	-70.226 	-15.887 	-70.756 
17     	45.988    	-17.706   	1.600     	31.476    	-88.773 	171.555 	-92.622 	-96.535 	-89.866 	-87.407 	-155.193	-86.275 
18     	30.587    	-32.336   	1.600     	21.187    	-63.686 	2.008   	-82.705 	-56.061 	-79.682 	-63.151 	-3.117  	-63.578 
19     	37.342    	-1.026    	1.600     	28.958    	-80.923 	-31.832 	-111.664	-18.482 	-88.475 	-80.681 	-31.459 	-80.220 
20     	59.683    	14.879    	1.600     	56.252    	-69.366 	169.702 	-83.631 	-38.047 	-87.513 	-70.947 	175.907 	-69.300 
21     	102.412   	45.611    	1.600     	108.821   	-86.278 	-155.745	-95.817 	-3.289  	-95.203 	-89.119 	-143.396	-85.754 
22     	31.793    	-12.261   	1.600     	18.612    	-68.930 	123.792 	-250.000	0.000   	-250.000	-68.930 	123.792 	-68.930 
23     	33.014    	-43.254   	1.600     	30.780    	-66.107 	156.268 	-89.145 	-41.506 	-86.926 	-66.708 	157.589 	-66.071 
24     	19.146    	-20.773   	1.600     	6.090     	-58.473 	-43.464 	-80.213 	-125.302	-73.020 	-58.345 	-48.043 	-58.324 
25     	21.940    	-15.656   	1.600     	8.662     	-63.703 	158.708 	-72.798 	73.258  	-74.846 	-62.988 	139.911 	-63.381 
26     	31.111    	-20.299   	1.600     	16.846    	-65.605 	-51.896 	-81.123 	151.835 	-81.388 	-67.023 	-56.449 	-65.491 
27     	35.217    	-23.140   	1.600     	21.257    	-68.800 	-141.421	-94.278 	-169.533	-82.153 	-68.399 	-142.793	-68.604 
28     	37.369    	-27.060   	1.600     	24.379    	-76.491 	-13.749 	-79.494 	-121.814	-82.392 	-76.230 	-54.512 	-75.498 
29     	41.160    	-21.903   	1.600     	26.855    	-77.679 	65.179  	-92.921 	-68.447 	-86.101 	-78.696 	57.089  	-77.096 
30     	45.031    	-18.746   	1.600     	30.507    	-87.157 	-128.641	-85.823 	175.327 	-89.545 	-81.519 	-158.992	-85.179 
31     	48.901    	-15.588   	1.600     	34.498    	-89.369 	176.901 	-90.285 	165.087 	-91.818 	-83.840 	171.307 	-87.413 
32     	52.810    	-13.431   	1.600     	38.610    	-89.510 	38.668  	-97.129 	-177.942	-93.707 	-92.475 	59.093  	-88.109 
