# <Transmitter Set: Tx: 1 TX2 - Point 1> 
# <Receiver Set: Rx: 11 32 Extra Receivers > 
# <number of receiver points>
# <receiver point number> <number of paths for this point>
# <path number> <arrival phi(deg)> <arrival theta(deg)> <received power(dBm)>
 32
1 25
1 56.3846 94.0984 -75.2171
2 56.0886 94.0983 -87.6245
3 63.4798 92.9986 -92.1133
4 63.5145 92.9985 -94.0824
5 102.685 91.818 -96.1125
6 -64.7617 124.391 -96.5083
7 51.2566 94.0337 -97.5964
8 51.2464 94.0337 -100.03
9 104.038 92.5839 -100.486
10 55.5626 94.0977 -100.534
11 64.7613 92.6977 -101.126
12 81.9184 93.9282 -101.576
13 65.6191 90.7973 -102.295
14 33.3175 91.3799 -102.756
15 64.7285 92.6977 -102.785
16 53.5908 93.4379 -103.469
17 102.73 91.818 -103.899
18 -160.134 93.9512 -104.042
19 63.8325 94.069 -104.062
20 81.8864 93.9282 -104.094
21 104.038 94.116 -104.287
22 104.044 92.5839 -104.451
23 44.7026 94.0397 -105.032
24 29.4037 92.7314 -105.532
25 62.544 95.3802 -106.23
2 25
1 124.944 97.7696 -69.492
2 118.232 97.7273 -95.6723
3 170.75 95.9316 -96.3893
4 -119.918 84.2634 -96.77
5 -49.5711 91.086 -97.3184
6 74.2956 91.3885 -97.6021
7 170.688 95.9316 -97.9707
8 -60.0584 91.0854 -98.1624
9 64.7968 91.4533 -99.4638
10 104.248 92.8642 -99.7795
11 64.7613 91.4533 -100.883
12 104.386 93.3702 -101.24
13 142.898 95.4096 -101.332
14 126.738 92.1442 -101.396
15 44.5268 93.9918 -102.081
16 104.241 92.8642 -102.194
17 -41.5636 116.426 -103.816
18 82.7884 96.0657 -104.141
19 44.6139 93.9916 -104.21
20 142.965 95.409 -105.068
21 176.676 91.3804 -105.419
22 71.7651 91.3835 -105.539
23 120.18 95.9863 -105.805
24 33.522 91.4239 -106.046
25 -75.809 115.706 -106.094
3 25
1 110.27 95.6085 -72.3642
2 -116.89 86.0945 -89.8073
3 104.413 94.2702 -94.3818
4 170.688 95.0992 -95.6007
5 74.1772 91.5214 -96.7459
6 54.3011 91.8721 -96.9834
7 170.612 95.0992 -97.2118
8 104.406 94.2702 -98.6068
9 104.674 92.3466 -99.907
10 116.829 95.5912 -100.588
11 120.671 92.4266 -101.363
12 119.574 92.4266 -101.601
13 170.688 92.3014 -101.911
14 121.926 94.9413 -102.57
15 82.8495 95.198 -102.821
16 -58.7792 90.8293 -102.822
17 111.482 92.7547 -103.064
18 -163.411 91.8544 -103.169
19 170.612 92.3014 -103.213
20 74.3699 92.0156 -104.322
21 121.948 94.9412 -104.385
22 142.898 94.2146 -104.418
23 106.123 95.5331 -104.719
24 74.3538 92.0156 -105.109
25 67.9806 87.3414 -105.158
4 25
1 116.829 95.6694 -82.1443
2 -74.5696 92.2573 -91.7656
3 -143.53 83.0535 -92.6618
4 118.237 95.6688 -93.3078
5 104.458 93.9662 -95.5193
6 72.8189 91.4897 -96.4111
7 -51.2585 91.0317 -98.7296
8 -58.3552 91.0314 -99.5453
9 -74.5804 92.1849 -100.122
10 121.826 92.8813 -100.205
11 104.465 93.9662 -100.272
12 -70.9534 92.1142 -101.405
13 121.917 92.8813 -101.786
14 119.574 95.6428 -102.215
15 104.668 92.3448 -102.349
16 -162.968 91.7861 -103.135
17 111.883 92.8348 -103.305
18 122.692 92.4579 -103.493
19 121.926 95.4501 -104.159
20 72.8539 91.4897 -104.661
21 -74.5332 92.5045 -105.077
22 -40.0474 116.441 -105.767
23 123.306 92.3675 -105.777
24 122.154 92.4575 -105.779
25 67.8358 87.1231 -105.973
5 25
1 143.211 96.3946 -80.6026
2 142.143 96.2588 -83.9123
3 142.161 96.2588 -93.0182
4 142.83 96.3937 -94.5875
5 145.299 96.3868 -95.7491
6 142.084 96.2586 -97.6843
7 130.435 95.4695 -98.3036
8 146.775 90.9459 -102.038
9 138.101 90.9677 -102.078
10 104.458 93.0361 -102.254
11 130.572 95.4692 -102.783
12 132.889 92.2408 -103.611
13 118.199 96.0808 -106.412
14 142.115 96.3714 -107.382
15 145.833 96.3823 -108.141
16 142.18 96.3587 -108.208
17 132.585 92.2371 -108.565
18 142.025 96.3837 -109.271
19 14.3213 88.917 -109.277
20 20.2218 82.2755 -109.313
21 114.468 92.9339 -109.361
22 104.65 92.1139 -109.621
23 3.81606 85.5246 -110.031
24 146.778 90.8738 -110.337
25 104.452 93.0361 -110.386
6 25
1 104.477 92.5966 -98.5015
2 118.199 94.9689 -99.5284
3 143.17 94.8915 -99.7361
4 104.471 92.5966 -100.666
5 118.063 94.9688 -101.804
6 143.204 94.8913 -102.542
7 74.3538 91.5399 -103.172
8 74.3699 91.5399 -103.811
9 68.0904 91.2654 -104.325
10 145.828 95.3138 -106.12
11 176.963 91.53 -109.056
12 139.653 93.9458 -109.616
13 3.73149 84.8543 -110.011
14 176.979 91.53 -110.016
15 12.8079 87.7381 -110.599
16 122.038 93.5573 -110.609
17 -1.2041 94.9499 -110.909
18 110.851 93.6817 -110.977
19 130.435 94.1638 -111.12
20 99.4772 91.8103 -111.443
21 122.063 93.5573 -111.591
22 139.585 93.9456 -111.913
23 142.161 93.9242 -111.98
24 99.4599 91.8103 -112.024
25 128.094 93.8579 -112.264
7 25
1 139.734 91.2343 -98.7886
2 58.3742 91.2674 -99.3363
3 -167.518 91.2595 -104.261
4 139.71 91.2343 -105.248
5 145.828 92.8229 -107.596
6 57.5743 91.24 -108.51
7 120.651 92.5454 -109.991
8 143.204 92.7972 -110.517
9 120.547 92.5454 -111.869
10 104.581 92.0996 -112.195
11 176.438 91.1796 -112.915
12 130.572 92.6696 -113.008
13 44.5268 91.9986 -113.258
14 120.547 92.4601 -113.591
15 139.274 91.2342 -113.803
16 143.204 92.7189 -114.128
17 65.5482 87.2455 -114.269
18 -169.082 91.2316 -114.437
19 140.438 91.1977 -114.835
20 142.209 92.7812 -114.872
21 140.409 91.1977 -114.899
22 74.7278 91.1854 -114.968
23 58.2797 91.3414 -115.235
24 120.651 92.4601 -115.535
25 58.2435 91.3623 -115.681
8 25
1 104.537 92.518 -93.66
2 106.051 92.9743 -99.3939
3 104.535 92.518 -100.653
4 104.541 92.518 -100.744
5 105.905 92.9743 -102.638
6 145.828 93.9821 -104.221
7 143.204 93.9193 -108.536
8 91.1358 91.3375 -109.16
9 55.9622 92.1565 -109.618
10 91.147 91.3375 -109.693
11 67.5754 86.3203 -110.248
12 55.9168 92.1565 -110.857
13 128.633 93.9565 -111.301
14 160.193 91.3321 -112.078
15 110.795 93.3186 -112.58
16 160.204 91.3321 -112.624
17 53.6293 91.5117 -113.343
18 118.199 93.8019 -113.415
19 61.3055 91.3225 -113.554
20 142.209 93.8738 -113.825
21 44.5268 92.5021 -113.954
22 4.29589 88.2262 -113.991
23 14.9787 90.5197 -114.015
24 -170.166 91.3141 -114.113
25 -0.557193 96.1789 -114.162
9 25
1 -44.6022 91.0735 -99.4424
2 -65.0196 91.0724 -100.456
3 146.102 96.5161 -104.82
4 143.114 91.5523 -106.39
5 143.041 91.5522 -107.685
6 -64.8781 91.0724 -109.32
7 67.0924 91.1149 -109.522
8 104.458 93.1715 -110.079
9 20.4029 80.9383 -110.164
10 145.783 93.7684 -111.47
11 44.5268 92.4319 -111.952
12 -51.9463 86.9189 -113.537
13 131.032 92.789 -113.662
14 130.69 92.7511 -114.022
15 131.044 92.7889 -114.436
16 17.9732 91.6478 -114.506
17 -60.2653 87.3351 -114.595
18 130.703 92.7511 -114.651
19 -176.208 91.1092 -115.1
20 44.4218 92.4318 -115.117
21 118.063 93.7285 -115.53
22 -44.4348 91.0735 -115.664
23 -43.9095 91.0735 -115.848
24 67.2832 88.8603 -115.858
25 55.8635 92.0037 -116.404
10 25
1 139.585 93.2436 -105.347
2 145.783 94.6232 -105.523
3 139.653 93.2435 -107.387
4 68.1211 91.1827 -107.649
5 77.6754 91.0138 -108.44
6 19.7193 80.4309 -108.883
7 14.1807 88.787 -109.571
8 171.116 92.9845 -109.858
9 145.828 94.6229 -110.589
10 143.17 94.0117 -110.811
11 66.7571 85.4535 -110.926
12 104.458 92.2893 -111.38
13 6.31105 87.6174 -113.105
14 44.5268 92.7151 -114.711
15 106.396 93.0586 -114.92
16 128.033 93.8489 -114.924
17 64.12 70.3929 -115.024
18 118.063 94.469 -115.326
19 -53.1859 90.7136 -116.231
20 -124.364 88.7819 -116.722
21 3.72775 101.325 -116.843
22 -56.3301 90.7135 -116.957
23 27.9609 90.4677 -117.208
24 -128.639 78.1497 -117.232
25 104.452 92.2893 -118.188
11 25
1 145.828 95.4001 -93.9565
2 145.783 95.4 -95.7723
3 33.5307 91.2879 -101.886
4 68.9836 91.2333 -103.788
5 104.458 92.4998 -104.373
6 47.6759 91.6753 -106.718
7 19.7587 80.4805 -108.376
8 143.17 94.6986 -108.615
9 47.6101 91.6753 -108.669
10 104.452 92.4998 -108.674
11 118.063 95.0961 -110.146
12 15.5382 88.7056 -110.152
13 2.97191 84.1894 -110.18
14 64.3616 92.976 -110.455
15 109.346 93.3054 -111.549
16 63.818 84.5133 -111.959
17 -0.382143 97.6305 -111.973
18 64.2925 92.9759 -112.154
19 120.383 93.6435 -112.422
20 170.497 92.3029 -112.438
21 128.026 93.8497 -113.366
22 145.334 91.1198 -114.145
23 145.403 91.1198 -114.379
24 28.4144 91.4153 -114.543
25 44.5268 92.936 -115.086
12 25
1 -173.956 91.65 -111.766
2 44.5268 92.1654 -112.71
3 21.7303 81.9354 -112.84
4 145.783 93.1709 -112.986
5 55.8635 91.8193 -113.569
6 -51.7829 84.9394 -114.079
7 -44.4439 90.8213 -114.578
8 -60.1827 85.7535 -115.042
9 55.9168 91.8193 -115.063
10 -47.6042 75.7166 -115.561
11 44.4218 92.1653 -115.66
12 143.17 92.8601 -115.738
13 -164.476 91.8028 -116.117
14 -61.9429 75.6928 -116.737
15 118.063 93.1362 -117.406
16 145.783 94.6907 -117.597
17 71.8428 87.8477 -117.696
18 -164.527 91.8028 -117.808
19 19.6879 92.9645 -117.919
20 120.383 92.4313 -118.576
21 104.586 93.4019 -118.684
22 128.092 93.9901 -118.869
23 104.471 91.868 -119.811
24 -173.958 91.21 -119.895
25 28.5677 91.5716 -120.023
13 25
1 104.452 93.1238 -107.733
2 130.69 92.7066 -110.04
3 44.5268 92.4138 -110.094
4 130.703 92.7066 -110.615
5 21.7344 81.9582 -111.455
6 145.783 93.6955 -111.99
7 104.458 93.1238 -112.379
8 143.17 93.2298 -112.419
9 44.4218 92.4137 -112.6
10 139.653 92.7076 -112.724
11 -52.0673 85.8635 -112.81
12 131.032 92.7428 -112.944
13 44.4218 92.1481 -113.267
14 131.044 92.7428 -113.63
15 118.063 93.6768 -113.703
16 -60.0514 86.3999 -113.914
17 139.585 92.7075 -114.42
18 143.114 91.5663 -114.956
19 104.452 92.0078 -115.753
20 -176.427 91.0985 -115.781
21 67.3073 91.1041 -115.808
22 143.041 91.5663 -116.114
23 19.6884 92.9668 -116.514
24 104.624 92.4994 -116.8
25 56.0886 91.1578 -117.074
14 25
1 145.783 94.6972 -100.527
2 145.828 94.697 -103.255
3 139.653 93.3358 -105.124
4 104.465 92.3286 -106.12
5 139.585 93.3358 -107.122
6 67.896 91.1952 -107.895
7 104.458 92.3285 -108.926
8 19.7264 80.4366 -108.967
9 143.17 94.1165 -110.81
10 14.5477 86.8105 -110.949
11 120.383 93.2836 -111.332
12 5.19433 85.6405 -111.47
13 70.9448 91.8481 -112.547
14 120.547 93.2834 -113.808
15 128.053 93.8522 -114.543
16 1.71351 99.9454 -114.58
17 118.063 94.5072 -114.761
18 110.381 93.6127 -114.83
19 44.5268 92.7282 -115.27
20 145.783 95.9717 -115.501
21 65.8471 72.0014 -115.856
22 145.828 95.9736 -116.116
23 -52.9116 90.7103 -116.224
24 28.2258 91.1779 -116.267
25 170.497 92.1535 -116.828
15 25
1 145.828 95.5651 -99.0727
2 104.458 92.5418 -101.15
3 69.1873 91.2425 -102.221
4 145.783 95.5649 -102.418
5 104.452 92.5418 -103.831
6 69.9082 91.1296 -103.877
7 118.063 95.2277 -107.881
8 143.17 94.8497 -108.062
9 19.6916 80.6725 -108.391
10 33.5307 91.2952 -108.792
11 14.2344 88.8386 -109.023
12 170.497 92.3383 -109.035
13 -178.998 91.124 -109.26
14 -178.271 91.2356 -110.184
15 3.93092 85.218 -110.43
16 -178.992 91.124 -110.622
17 166.412 91.1998 -110.765
18 109.398 93.333 -111.208
19 166.396 91.1998 -111.254
20 -70.5059 91.1576 -111.34
21 120.383 93.734 -111.656
22 63.9847 84.6486 -111.752
23 145.607 94.2006 -111.841
24 -0.177357 97.3115 -112.174
25 47.6759 91.6926 -112.815
16 25
1 -7.14243 98.2197 -74.0873
2 -103.823 97.9583 -80.8864
3 -25.6199 95.259 -86.6993
4 -85.079 95.1864 -87.7365
5 -62.5144 111.251 -89.6334
6 -28.7041 94.6234 -96.103
7 15.6234 93.812 -96.108
8 -18.1381 92.1333 -96.3182
9 -29.4457 89.1797 -97.2814
10 -38.7966 91.1799 -97.9574
11 -80.8009 88.7143 -98.0869
12 -94.4369 91.1577 -98.8196
13 -75.0336 92.5344 -99.259
14 -81.8631 94.5725 -99.8474
15 -5.99373 98.2111 -99.8532
16 -26.7639 93.0353 -102.023
17 -36.0012 111.221 -103.999
18 145.607 92.5756 -104.165
19 -29.817 107.603 -104.869
20 -83.8583 92.767 -104.871
21 12.8003 88.1456 -105.72
22 65.9136 91.3372 -105.906
23 145.499 92.5756 -105.911
24 -78.1604 109.253 -105.956
25 -56.2388 68.9003 -105.982
17 25
1 -17.1031 94.8278 -89.305
2 -93.3579 94.7517 -93.223
3 -12.7488 91.2418 -96.1491
4 -20.6798 94.3507 -97.6912
5 -89.7169 94.2938 -98.1224
6 -97.0361 91.2645 -99.4548
7 3.78005 93.0393 -100.953
8 -56.9751 83.0003 -101.468
9 -29.698 88.5503 -101.493
10 -20.1701 95.1249 -101.512
11 -80.5427 88.074 -102.261
12 -39.0391 90.9069 -102.358
13 -89.6004 95.1865 -102.446
14 -127.288 93.3345 -103.197
15 -74.902 92.3344 -103.89
16 142.965 92.0713 -105.54
17 -18.7028 91.1462 -106.273
18 -113.561 92.9974 -106.61
19 143.041 92.0713 -106.897
20 -35.9198 111.221 -107.52
21 -27.5363 93.2669 -107.686
22 -56.3352 63.7418 -107.944
23 12.6271 88.1275 -108.017
24 -29.5859 107.646 -108.723
25 -25.8129 91.372 -108.869
18 25
1 -40.6056 100.057 -67.9682
2 -71.6891 99.915 -68.929
3 -67.5191 91.9261 -83.838
4 -2.01501 96.1972 -84.1917
5 -108.415 96.0365 -89.0046
6 -39.7386 101.02 -89.2849
7 -72.5028 100.906 -89.6175
8 -39.9771 92.6501 -90.5398
9 -73.8447 99.8237 -92.2291
10 -38.1621 99.9855 -92.4688
11 -74.8531 92.9875 -93.3654
12 -32.0662 87.7762 -97.0245
13 -78.5222 87.5833 -97.2366
14 -1.81325 95.1206 -97.6312
15 125.721 91.448 -98.0478
16 3.49098 85.8059 -99.3398
17 -35.28 92.9215 -99.8012
18 -34.083 92.8856 -100.963
19 13.6537 88.9003 -101.034
20 6.48675 94.8312 -101.528
21 -36.988 111.217 -101.817
22 -39.7114 103.393 -102.011
23 19.4091 80.7251 -102.135
24 -116.488 94.7235 -102.333
25 11.8555 89.8207 -102.41
19 25
1 38.1255 97.3409 -69.9847
2 -147.316 97.0635 -76.729
3 114.239 91.6876 -87.5934
4 -68.6841 139.294 -91.2488
5 29.8524 92.0659 -93.2554
6 28.7104 94.578 -94.6949
7 -75.4071 93.1909 -94.843
8 44.1861 97.2265 -95.0533
9 -43.477 91.1885 -96.9873
10 81.9664 95.7697 -98.3295
11 117.045 95.1573 -99.7738
12 29.6307 91.2039 -99.8563
13 35.2864 91.3183 -100.05
14 -139.209 92.0433 -100.199
15 82.0304 95.7696 -100.307
16 44.1705 97.2263 -101.248
17 31.5142 91.3168 -101.293
18 32.6095 91.3168 -101.327
19 171.473 95.6466 -101.577
20 117.162 95.1572 -101.739
21 44.2382 96.0428 -103.626
22 171.53 95.6465 -103.68
23 -138.34 93.1037 -103.688
24 113.6 91.5194 -104.368
25 -144.583 91.309 -104.964
20 25
1 36.8175 93.7714 -75.9874
2 26.239 93.7364 -80.1444
3 -146.084 93.6964 -81.1624
4 -156.373 73.6534 -88.9523
5 -135.714 93.6637 -90.2311
6 47.4547 93.4049 -92.6166
7 47.4908 93.4049 -94.7471
8 33.2714 91.9145 -100.463
9 34.3604 88.6662 -101.552
10 35.1721 91.1263 -101.754
11 44.1705 93.7524 -102.346
12 74.321 92.0341 -102.361
13 63.8695 93.5057 -102.82
14 31.2352 91.0384 -103.044
15 74.3363 92.0341 -103.095
16 33.4279 91.3654 -103.218
17 28.6747 95.4043 -104.876
18 63.8447 93.5057 -104.938
19 -142.601 91.8565 -105.561
20 30.1529 93.6567 -105.665
21 -144.469 91.1195 -106.657
22 30.5869 94.1587 -106.712
23 -143.714 88.8568 -106.723
24 52.7035 91.5933 -106.856
25 29.0386 90.1245 -107.146
21 25
1 36.2889 91.9485 -82.3472
2 -145.575 91.9283 -87.3092
3 -170.04 75.2097 -95.4864
4 51.2566 91.84 -100.678
5 -160.134 91.8226 -100.986
6 -160.135 91.8226 -102.051
7 51.2581 91.84 -103.007
8 35.416 91.9481 -104.223
9 35.0861 90.8802 -104.547
10 55.5757 91.9037 -105.183
11 53.4793 91.8631 -105.288
12 53.9663 91.8416 -106.585
13 53.4916 91.8631 -106.6
14 55.5644 91.9037 -106.689
15 -162.421 91.8455 -108.271
16 -144.711 91.9279 -109.212
17 -162.433 91.8455 -109.369
18 -144.383 90.876 -109.435
19 47.0664 91.2454 -110.181
20 47.4413 91.9169 -110.564
21 44.1705 91.9412 -110.895
22 44.1705 91.944 -110.923
23 142.898 91.4083 -112.243
24 47.4547 91.9169 -113.153
25 171.571 91.8406 -113.629
22 25
1 20.866 101.467 -72.7961
2 -131.008 100.826 -78.2982
3 23.8435 101.359 -83.4109
4 -133.897 100.724 -94.8163
5 23.8463 101.359 -94.9543
6 8.96613 97.7926 -97.3887
7 -133.893 100.724 -97.403
8 117.284 96.0391 -97.9885
9 -119.292 97.4275 -98.0409
10 117.162 96.039 -100.151
11 23.8493 101.359 -103.841
12 44.3191 97.0232 -104.876
13 -133.9 100.724 -105.487
14 -34.1162 93.8578 -106.015
15 -119.298 97.3145 -106.25
16 139.294 91.5652 -106.497
17 139.501 92.3617 -106.67
18 139.274 91.5652 -107.242
19 -35.0867 93.4562 -107.317
20 -75.3392 93.8476 -107.452
21 21.0987 98.3824 -108.922
22 139.414 92.3616 -108.927
23 23.8344 101.359 -110.736
24 104.206 92.4208 -110.758
25 -33.7261 93.8945 -110.806
23 25
1 -53.2896 96.9042 -70.5209
2 -58.1432 96.8934 -71.3467
3 -50.9163 91.5398 -93.573
4 -45.3934 95.6876 -93.8193
5 -65.9274 95.6046 -94.1456
6 -58.8535 91.5389 -94.4023
7 -44.5289 92.0704 -97.2225
8 -66.9515 91.9242 -97.9391
9 -56.4847 96.9778 -98.5802
10 -1.4975 94.0106 -99.9453
11 117.564 93.8849 -102.108
12 -50.8843 96.507 -102.838
13 -60.007 96.4908 -103.704
14 -48.7153 95.7946 -103.878
15 3.27675 84.7771 -104.008
16 -2.30222 92.2308 -104.254
17 -62.4452 95.8076 -104.292
18 117.416 93.8848 -104.308
19 -55.7303 92.4908 -104.969
20 13.6949 88.5953 -105.606
21 -51.9291 86.2913 -105.72
22 19.3416 80.3223 -106.021
23 -108.529 93.9423 -106.188
24 -42.6308 100.277 -106.389
25 -44.7894 104.89 -106.437
24 25
1 -24.6185 127.414 -60.0146
2 -95.0327 123.941 -69.7982
3 -68.3861 139.561 -73.8416
4 25.7662 97.4733 -74.0403
5 25.7674 97.4146 -81.0708
6 -41.4073 116.361 -86.2686
7 -32.3951 113.088 -87.423
8 -74.7085 115.69 -88.8963
9 -81.6173 112.115 -90.1138
10 26.5179 97.4726 -90.7893
11 25.7462 98.511 -93.3379
12 -49.5079 91.294 -95.4067
13 -60.1855 91.2932 -96.2531
14 -51.5905 91.2901 -96.2803
15 112.129 91.4277 -96.7522
16 14.4784 89.699 -97.2453
17 -75.0908 93.2026 -97.2754
18 20.1123 81.8428 -97.8002
19 -35.3712 93.2215 -97.817
20 4.31764 87.3399 -98.3523
21 -0.858675 95.9475 -98.3732
22 3.05264 120.047 -98.81
23 -39.9 90.4381 -99.3986
24 -33.8857 93.2039 -99.5887
25 145.548 94.4179 -100.014
25 25
1 23.3356 115.286 -64.5128
2 -134.153 112.457 -69.8348
3 -109.507 113.89 -75.3685
4 24.5269 98.7469 -79.3783
5 142.965 93.3025 -87.7347
6 24.5394 98.7469 -88.2785
7 143.041 93.3025 -89.4629
8 24.5143 98.7469 -91.416
9 -134.543 98.3625 -91.6017
10 -29.5732 112.996 -91.9779
11 34.1505 91.7192 -92.439
12 -40.528 116.422 -92.6557
13 32.896 91.718 -93.5558
14 -75.07 93.4719 -93.5882
15 -77.3865 115.596 -94.7223
16 -83.8147 111.979 -95.1315
17 15.1307 90.4943 -95.2071
18 20.5988 83.3751 -96.2079
19 124.014 91.6553 -96.8163
20 -143.457 91.7034 -97.3873
21 4.56887 87.9342 -97.6459
22 -0.437615 96.4121 -98.1532
23 -43.9095 94.0382 -98.3095
24 -134.531 98.3625 -98.3217
25 117.284 97.8524 -98.3728
26 25
1 -5.3795 102.688 -70.6662
2 -106.382 102.062 -76.7463
3 24.0876 98.6791 -79.7126
4 6.90491 99.204 -81.6017
5 -73.8547 94.738 -83.7785
6 -63.7546 118.557 -85.5909
7 -36.8362 94.7766 -85.7251
8 142.965 92.8471 -85.8184
9 143.041 92.8471 -87.5219
10 -0.0169163 98.9393 -88.4678
11 -134.13 98.3009 -89.4408
12 24.078 98.6791 -89.5084
13 -117.508 98.8205 -90.0811
14 24.0973 98.6791 -90.7212
15 5.70173 94.6259 -92.5973
16 -111.402 99.2079 -93.2046
17 -134.121 98.3009 -94.2503
18 122.31 91.578 -94.4974
19 -133.939 98.0984 -95.243
20 -35.2648 93.4941 -95.4717
21 12.9804 89.7364 -95.8607
22 -39.4015 90.8287 -97.0662
23 -35.1641 93.4639 -98.0597
24 -31.1832 87.7219 -98.4188
25 20.4489 83.6531 -98.8477
27 25
1 -12.0837 100.024 -75.3308
2 -99.4304 99.6671 -77.5246
3 -5.08783 98.8027 -80.7521
4 -77.9141 95.1992 -84.9293
5 16.0568 94.1939 -85.432
6 -65.875 92.0677 -85.7089
7 -32.8756 95.2553 -85.9196
8 -105.921 98.4947 -87.3134
9 -2.83234 98.9749 -90.0983
10 143.041 92.6701 -94.2418
11 142.965 92.67 -95.6609
12 -38.9842 91.1779 -95.6826
13 -30.3628 88.5581 -96.5159
14 -108.693 97.9932 -96.9287
15 -34.0413 93.2498 -97.0605
16 -79.9441 88.1452 -97.113
17 -74.9599 92.5552 -97.134
18 -75.264 93.2444 -97.7822
19 -18.3192 90.7101 -98.5045
20 4.57415 90.4405 -98.8605
21 -34.0075 93.2585 -99.1428
22 -35.2306 93.2736 -99.1489
23 -34.0451 93.2498 -100.163
24 141.962 92.413 -100.337
25 -93.7543 90.028 -101.051
28 25
1 -20.1539 98.7297 -76.1786
2 -91.3195 98.4989 -77.2922
3 -79.4658 95.8178 -84.0828
4 -31.4862 95.8926 -85.1642
5 -65.1358 89.277 -87.0097
6 11.1534 94.113 -88.9734
7 -37.7715 92.6741 -93.2596
8 -29.3158 90.135 -94.3371
9 -74.2625 93.1155 -94.3949
10 -80.9636 89.7184 -95.082
11 122.298 91.4768 -95.1925
12 -22.2391 99.0304 -95.3451
13 -23.8452 100.176 -96.7518
14 -18.281 91.7381 -97.3143
15 145.499 93.2103 -97.3893
16 -35.2306 93.0623 -97.5299
17 11.1534 94.113 -97.5702
18 -2.30018 96.1356 -97.7007
19 -89.5035 98.8469 -98.0014
20 -75.2603 93.0377 -98.0453
21 -34.0075 93.0492 -98.387
22 145.607 93.2102 -98.8783
23 -34.0413 93.0424 -99.5851
24 -92.8058 91.1551 -99.9299
25 -35.2004 93.0548 -100.407
29 25
1 -6.79092 97.9193 -74.4227
2 -104.104 97.6751 -80.5521
3 -24.2069 95.2756 -86.6489
4 -86.4759 95.1995 -89.0487
5 -62.4864 111.097 -89.9733
6 -18.0799 92.5057 -95.9286
7 -27.9693 94.5439 -96.2515
8 15.3505 93.7473 -96.4388
9 -5.99373 97.9161 -96.4461
10 -29.3075 89.2705 -97.5898
11 -94.6716 91.4201 -98.4187
12 -80.9349 88.8 -98.429
13 -38.7781 91.1749 -98.5061
14 -75.0408 92.5277 -99.7948
15 -26.6344 92.8053 -102.588
16 1.12974 93.3043 -103.586
17 -35.9613 111.221 -104.449
18 -29.7326 107.604 -105.218
19 -84.092 92.518 -105.224
20 -105.228 97.6686 -105.327
21 12.7953 88.1064 -106.081
22 -78.2578 109.255 -106.37
23 -56.3873 63.2104 -106.795
24 145.499 92.5813 -107.422
25 -125.035 93.6776 -107.578
30 25
1 -18.4276 94.9397 -89.0658
2 -92.0816 94.8624 -94.4945
3 -13.079 91.3344 -95.7409
4 143.041 92.0887 -96.6271
5 17.071 93.4618 -97.0013
6 -22.2912 94.3844 -97.1795
7 142.965 92.0887 -98.1976
8 -96.5958 91.398 -98.9545
9 -57.218 81.1969 -99.8858
10 3.35069 93.0976 -100.327
11 -29.5771 88.7076 -100.674
12 -80.6608 88.2302 -101.467
13 -38.9825 90.9586 -101.624
14 -126.697 93.4016 -102.971
15 -74.9331 92.3726 -103.104
16 -153.177 92.542 -104.106
17 -18.4365 94.7097 -104.59
18 -88.1351 94.329 -105.012
19 -19.3338 91.2692 -105.99
20 -113.146 93.0544 -106.472
21 -91.6248 94.6936 -106.815
22 -25.765 91.7989 -106.825
23 44.3191 92.5768 -106.856
24 -35.9107 111.221 -106.896
25 12.6099 88.1573 -107.624
31 25
1 -13.3871 94.6056 -89.4912
2 -11.8602 90.9602 -97.321
3 -96.9618 94.5309 -97.8836
4 -17.0465 94.1989 -98.1872
5 -97.4783 90.2968 -101.203
6 -93.2635 94.1412 -102.468
7 -14.4906 94.0379 -102.748
8 -29.925 88.2754 -103.565
9 -39.1433 90.8109 -104.269
10 -80.3241 87.8024 -104.286
11 -95.6044 94.0322 -105.089
12 -74.8423 92.2615 -105.899
13 -24.5635 93.2074 -107.496
14 1.85331 92.7943 -107.721
15 -56.4903 76.6606 -107.748
16 -17.1556 90.3468 -107.948
17 -56.3285 63.5209 -108.578
18 -85.5821 93.1796 -108.711
19 -35.9439 111.221 -109.246
20 -10.7329 79.6423 -109.408
21 5.3071 92.9116 -110.337
22 -29.6115 107.658 -110.696
23 -78.4378 109.267 -111.429
24 44.4218 92.4581 -112.48
25 -26.0174 90.3569 -113.085
32 25
1 -8.84053 94.3741 -88.0841
2 -101.382 94.3011 -96.2862
3 -13.2745 93.9725 -98.1208
4 -11.5851 90.549 -99.7676
5 7.37921 92.776 -102.766
6 -8.86062 93.8186 -103.339
7 -97.782 89.8999 -103.616
8 -98.9967 93.6823 -105.241
9 -30.1554 88.0395 -106.063
10 -39.2387 90.7266 -106.58
11 -96.9296 93.9167 -106.66
12 -80.106 87.5719 -106.738
13 3.48382 92.6585 -107.341
14 -74.7857 92.1949 -108.301
15 -20.8682 93.1498 -108.708
16 -56.4925 76.5975 -108.756
17 -56.3213 63.2992 -109.356
18 -89.2286 93.1201 -109.468
19 -12.0231 88.5105 -110.146
20 -10.5025 79.6697 -110.359
21 -35.9817 111.221 -111.435
22 -96.1283 89.0786 -112.89
23 -29.6665 107.667 -113.135
24 -113.208 92.6265 -113.165
25 -78.3737 109.269 -113.725
