# <Transmitter Set: Tx: 2 TX1 - Point 1> 
# <Receiver Set: Rx: 9 Walk2 > 
# <number of receiver points>
# <receiver point number> <number of paths for this point>
# <path number> <arrival phi(deg)> <arrival theta(deg)> <received power(dBm)>
 18
1 25
1 133.404 93.1202 -85.7652
2 135.065 90.8094 -107.48
3 135.082 90.8094 -112.285
4 137.011 93.1128 -116.582
5 140.49 90.9405 -116.947
6 141.598 93.1081 -117.01
7 131.855 93.11 -117.126
8 140.449 90.9405 -117.803
9 127.157 93.1061 -118.44
10 152.113 93.0389 -121.491
11 156.306 92.7579 -121.886
12 118.49 93.0255 -122.663
13 156.382 92.6746 -122.79
14 149.828 93.0682 -123.025
15 158.319 96.9053 -123.697
16 167.62 92.7604 -123.835
17 158.25 97.7087 -124.109
18 156.236 92.6737 -124.325
19 156.306 92.7682 -124.361
20 156.374 92.6205 -124.466
21 156.382 92.7578 -124.738
22 156.382 92.8519 -125.102
23 156.306 92.6745 -125.413
24 161.117 90.7558 -125.456
25 131.454 91.6429 -125.738
2 25
1 133.864 93.3933 -84.9737
2 63.6254 91.5827 -101.383
3 63.5942 91.5827 -102.476
4 62.5086 91.5274 -104.234
5 62.4783 91.5274 -105.279
6 60.9688 91.4719 -108.11
7 63.6057 91.2039 -109.676
8 61.5399 91.4782 -111.78
9 160.793 91.37 -112.528
10 135.065 90.7929 -112.744
11 61.5103 91.4782 -112.888
12 77.5507 92.3057 -114.627
13 156.382 92.9372 -114.838
14 137.011 93.3858 -115.173
15 106.456 93.317 -115.221
16 129.271 93.2841 -115.892
17 141.598 93.3801 -115.968
18 63.5993 90.7409 -116.035
19 -143.017 91.3244 -117.021
20 156.306 92.9371 -117.129
21 77.4219 92.3057 -117.314
22 -142.987 91.3244 -117.886
23 160.965 89.6058 -118.007
24 127.157 93.3727 -118.487
25 61.1749 91.4719 -120.533
3 25
1 132.196 93.6831 -84.2074
2 131.649 93.2634 -90.5647
3 129.053 93.8426 -104.001
4 62.3369 91.479 -105.832
5 -136.929 91.3885 -106.988
6 131.234 92.703 -107.276
7 59.6625 91.515 -109.363
8 -154.101 91.3901 -111.02
9 131.855 93.2631 -111.394
10 62.2487 91.2184 -112.398
11 135.23 90.7783 -112.746
12 127.213 93.5837 -114.211
13 -154.101 92.1634 -114.815
14 -138.228 90.78 -115.013
15 137.011 93.66 -115.478
16 127.157 93.6683 -115.694
17 141.598 93.6595 -115.881
18 140.086 93.6518 -116.023
19 135.065 90.7783 -116.624
20 127.197 93.5836 -116.821
21 139.175 93.6521 -117.523
22 82.8723 91.6216 -118.126
23 109.82 92.7477 -118.598
24 62.2423 90.7499 -118.661
25 62.4783 91.5739 -118.745
4 25
1 129.718 94.0129 -83.4122
2 137.029 93.9402 -101.586
3 63.2998 91.4969 -101.749
4 129.089 93.055 -102.224
5 137.011 93.9402 -102.991
6 163.05 93.1968 -103.023
7 129.284 93.055 -104.523
8 106.456 93.9324 -105.15
9 61.1042 91.6939 -106.238
10 127.071 93.8339 -106.938
11 59.9875 91.6241 -107.127
12 162.898 93.1968 -107.176
13 106.491 93.9324 -107.197
14 61.1368 91.6939 -107.333
15 59.1374 91.57 -107.523
16 60.0189 91.6241 -108.218
17 129.173 93.3657 -109.456
18 127.157 94.0079 -109.759
19 -149.241 92.0716 -112.402
20 110.073 92.8158 -112.518
21 64.8266 91.5505 -112.555
22 129.212 93.3656 -112.687
23 63.4771 91.4969 -112.806
24 130.671 90.5209 -112.847
25 140.086 93.9442 -112.911
5 25
1 129.617 94.4779 -82.4033
2 128.806 92.8317 -91.5986
3 128.927 92.8317 -96.1985
4 139.175 94.3678 -96.6222
5 139.201 94.3678 -97.7518
6 65.256 91.4706 -101.809
7 56.3216 91.593 -104.148
8 106.456 94.376 -106.557
9 140.086 94.3794 -107.718
10 63.1104 91.0582 -108.784
11 127.157 94.4711 -109.013
12 106.491 94.376 -109.245
13 126.864 93.8678 -110.914
14 140.106 94.3793 -111.402
15 111.333 93.3604 -111.625
16 65.3369 91.4706 -112.118
17 172.868 91.1274 -112.128
18 -149.192 92.1554 -112.579
19 141.598 94.4154 -113.609
20 -149.241 92.1553 -113.793
21 167.62 93.481 -113.912
22 125.622 94.4451 -114.709
23 63.1048 91.0582 -115.156
24 130.548 87.8803 -115.191
25 137.029 94.3551 -116.37
6 25
1 129.897 95.0644 -81.2832
2 140.106 94.9214 -90.9678
3 140.086 94.9214 -91.916
4 128.705 92.6381 -95.1691
5 67.0826 91.4411 -101.896
6 128.927 92.638 -102.238
7 -156.823 91.0826 -106.729
8 167.644 93.7327 -107.021
9 -156.181 93.1301 -107.834
10 167.62 93.7327 -108.39
11 -156.145 93.1301 -108.997
12 127.157 95.0506 -109.709
13 109.491 92.9058 -111.455
14 141.598 94.9815 -111.764
15 152.113 94.6724 -112.419
16 139.201 94.8948 -113.098
17 126.266 93.7912 -113.35
18 118.49 94.7508 -115.049
19 116.513 92.6045 -115.225
20 125.622 94.987 -115.289
21 129.836 85.637 -115.604
22 152.135 94.6723 -115.777
23 119.695 93.1201 -115.786
24 116.55 92.6045 -116.668
25 65.6702 90.2071 -117.589
7 25
1 130.112 95.8275 -80.0216
2 152.135 95.247 -89.3225
3 152.113 95.247 -90.0022
4 117.964 91.7186 -102.622
5 128.555 92.4694 -103.658
6 68.856 91.4122 -105.236
7 -156.145 93.3507 -108.802
8 141.598 95.708 -108.866
9 -178.935 93.4697 -109.701
10 140.106 95.5858 -109.789
11 106.456 95.6341 -109.865
12 -156.181 93.3507 -110.152
13 127.157 95.7945 -110.679
14 -178.906 93.4696 -111.228
15 108.231 92.9148 -111.917
16 128.927 92.4692 -112.455
17 135.187 90.7219 -113.668
18 149.828 95.4593 -114.803
19 135.065 90.7219 -114.867
20 117.963 91.613 -115.294
21 118.473 95.1712 -115.381
22 126.116 93.8062 -115.468
23 39.2128 93.1849 -115.583
24 106.491 95.6339 -115.852
25 58.5282 91.4076 -116.04
8 25
1 129.486 96.8572 -78.5785
2 127.071 96.7493 -93.4887
3 141.598 96.6371 -95.1924
4 141.631 96.6371 -96.8217
5 127.157 96.7491 -100.185
6 -132.79 91.0705 -102.859
7 39.2128 93.428 -105.473
8 70.6587 91.3868 -105.655
9 149.898 96.2247 -106.09
10 39.1281 93.4279 -106.904
11 140.106 96.2506 -107.493
12 149.828 96.2245 -108.26
13 118.49 92.3035 -109.457
14 106.456 96.5866 -109.465
15 118.494 92.3035 -109.849
16 128.114 92.3219 -111.677
17 135.065 90.7086 -112.361
18 107.561 92.9335 -112.531
19 140.153 96.25 -112.613
20 71.9792 91.7675 -112.722
21 71.963 91.7675 -113.466
22 135.137 90.7086 -113.901
23 16.562 82.8211 -114.669
24 152.135 95.8536 -115.197
25 65.3927 91.4905 -115.811
9 25
1 125.062 98.0793 -77.1366
2 39.1281 93.7296 -93.5749
3 39.2128 93.7296 -95.3601
4 106.456 97.8051 -103.116
5 -145.637 93.7322 -103.506
6 -154.117 91.4452 -104.327
7 -145.592 93.7322 -104.591
8 -154.732 91.4949 -104.597
9 125.433 94.679 -104.646
10 -154.747 91.4949 -105.259
11 -160.973 91.0464 -105.462
12 106.491 97.805 -106.976
13 125.497 94.679 -107.414
14 51.7768 93.0282 -108.104
15 140.153 96.1044 -108.532
16 51.7317 93.0282 -109.491
17 167.644 94.0427 -109.874
18 39.2786 91.3381 -110.879
19 39.3108 91.3381 -111.604
20 72.3546 91.3763 -111.749
21 167.675 94.0426 -111.818
22 51.9011 91.3521 -112.59
23 73.2641 95.7282 -112.651
24 152.135 96.0374 -113.036
25 107.982 92.9826 -113.048
10 25
1 112.946 98.2998 -76.9194
2 167.675 93.6814 -95.3565
3 167.644 93.6814 -96.2568
4 141.631 96.7171 -97.5487
5 141.702 96.7169 -99.3035
6 115.987 96.3315 -103.806
7 106.491 98.2618 -104.709
8 -160.945 91.0189 -105.634
9 140.153 95.282 -107.17
10 152.813 97.1377 -107.932
11 74.2399 91.4046 -108.952
12 140.224 95.2816 -109.754
13 77.4219 93.3252 -110.153
14 101.241 95.5056 -111.001
15 39.2128 94.044 -112.411
16 154.034 97.1299 -112.461
17 39.2786 91.8441 -112.78
18 115.756 96.3309 -112.789
19 25.0875 91.2916 -112.804
20 152.17 95.3493 -113.645
21 16.8761 83.5217 -113.948
22 110.332 92.7142 -114.221
23 102.086 92.059 -114.39
24 -145.592 93.5535 -114.479
25 77.2583 93.3252 -114.76
11 25
1 101.219 97.8762 -77.373
2 104.928 97.8652 -97.2625
3 120.339 92.2206 -97.3324
4 73.3645 96.8345 -97.3711
5 73.2641 96.8344 -99.5147
6 118.197 92.0161 -100.901
7 -160.665 90.9931 -104.928
8 -160.665 90.9931 -104.928
9 167.675 93.3631 -105.879
10 167.644 93.3631 -106.956
11 104.922 97.8652 -109.73
12 -160.665 91.5458 -110.002
13 141.702 95.8426 -110.468
14 75.7912 91.4402 -110.471
15 140.153 94.648 -111.104
16 101.254 92.1314 -111.262
17 115.756 95.7492 -112.769
18 140.106 91.9104 -113.013
19 24.267 90.4771 -113.356
20 39.1088 92.6522 -113.695
21 140.086 91.9104 -113.795
22 139.175 92.0976 -113.85
23 141.702 94.0662 -113.851
24 109.76 92.6116 -113.871
25 140.224 94.6477 -114.125
12 25
1 91.3558 97.1748 -78.1835
2 140.224 93.9214 -93.9166
3 140.153 93.9214 -95.6989
4 90.7245 97.1726 -98.9015
5 117.118 92.1959 -99.6703
6 -161.144 90.9545 -108.098
7 167.675 93.0938 -108.83
8 118.351 94.3809 -109.347
9 167.644 93.0938 -110.023
10 118.381 94.3808 -110.083
11 139.354 93.8309 -110.83
12 -130.499 90.9532 -110.872
13 104.928 97.0634 -111.373
14 51.1924 92.1726 -113.197
15 139.264 93.8309 -113.219
16 104.749 92.5201 -113.716
17 140.153 94.1509 -114.313
18 51.2304 92.1725 -114.468
19 101.259 92.1345 -114.708
20 141.702 95.1135 -114.917
21 117.363 92.7011 -115.397
22 64.5359 90.5824 -115.686
23 93.6077 91.1113 -116.663
24 140.224 94.1505 -117.94
25 82.8589 91.7824 -118.381
13 25
1 51.2304 92.2969 -98.208
2 51.1924 92.2969 -99.7822
3 83.5331 95.6928 -100.599
4 100.624 95.2434 -106.854
5 167.675 92.8641 -109.694
6 64.8935 91.4666 -109.715
7 39.2128 94.5753 -109.741
8 25.2476 91.494 -110.052
9 167.644 92.8641 -110.861
10 103.474 92.1744 -110.953
11 100.476 95.2431 -111.138
12 118.66 92.0009 -111.697
13 39.2786 94.5751 -112.313
14 118.676 92.0009 -113.333
15 63.7375 90.0786 -113.342
16 21.1352 88.5649 -113.89
17 81.1208 96.379 -114.7
18 65.8975 91.5535 -115.07
19 22.1903 83.5133 -116.473
20 140.153 93.7506 -116.864
21 27.3035 85.284 -116.92
22 141.702 94.5286 -117.162
23 139.264 93.4944 -118.216
24 87.2851 95.8071 -119.622
25 33.0108 91.1808 -120.05
14 25
1 78.5853 95.6414 -80.312
2 110.757 92.1582 -96.5843
3 115.744 93.8673 -98.0163
4 115.756 93.8673 -104.438
5 167.675 92.6694 -105.398
6 167.644 92.6693 -106.276
7 73.3937 95.6234 -106.995
8 109.382 92.1128 -107.42
9 39.2128 91.817 -108.052
10 115.561 93.8673 -108.584
11 39.2786 91.817 -109.201
12 25.2852 91.507 -110.069
13 102.525 92.0716 -110.725
14 61.77 89.5439 -112.957
15 87.128 95.235 -113.454
16 39.2786 94.443 -113.555
17 58.4681 95.1136 -113.778
18 106.491 92.1575 -114.722
19 104.928 95.422 -115.054
20 77.5507 91.9583 -115.377
21 109.337 92.1127 -115.934
22 27.3853 85.3646 -116.059
23 57.8441 92.1762 -116.083
24 70.166 94.7445 -116.154
25 62.4431 91.5461 -116.436
15 25
1 78.2872 94.927 -81.5354
2 77.6221 94.9227 -95.4974
3 77.6326 94.9227 -100.393
4 53.5855 93.5853 -100.974
5 107.453 91.7711 -103.262
6 -133.401 90.9116 -104.813
7 -133.401 90.9116 -104.813
8 53.5855 92.2502 -105.308
9 106.491 92.2012 -108.038
10 73.3937 94.9158 -108.425
11 63.7117 88.6606 -110.493
12 53.6636 93.5853 -110.689
13 25.5108 91.6639 -110.924
14 53.5981 93.5341 -110.926
15 137.152 92.7693 -111.556
16 58.5202 94.5865 -112.311
17 167.644 92.5284 -112.452
18 103.141 90.7451 -112.929
19 61.1368 91.6185 -113.477
20 39.2786 91.8663 -113.623
21 137.079 92.7693 -113.696
22 167.675 92.5283 -113.728
23 144.038 92.1262 -113.978
24 61.1623 91.6185 -114.283
25 51.1534 91.1842 -114.342
16 25
1 75.4045 94.4173 -82.5295
2 104.513 92.187 -98.3676
3 63.649 91.6742 -99.7317
4 63.6254 91.6742 -100.606
5 55.5714 92.3617 -102.261
6 73.3937 94.4159 -104.544
7 -157.613 90.8941 -105.824
8 104.922 92.187 -106.254
9 63.7498 89.8754 -108.785
10 102.313 92.1821 -109.442
11 70.1969 94.3439 -109.524
12 53.528 93.7558 -109.703
13 76.779 94.411 -109.781
14 100.456 91.8436 -110.069
15 78.584 92.2424 -111.805
16 25.7478 92.6017 -111.93
17 78.5999 92.2423 -112.948
18 62.5086 91.6316 -113.046
19 70.2082 94.3438 -113.078
20 51.8528 93.8193 -113.305
21 126.103 93.186 -113.522
22 72.3546 94.414 -113.683
23 60.0438 91.5857 -113.798
24 167.62 91.7893 -113.826
25 62.5319 91.6316 -113.94
17 25
1 72.0658 94.0276 -83.382
2 72.3546 94.0276 -93.2451
3 101.497 92.1447 -99.7532
4 72.0526 96.2715 -100.929
5 73.3937 94.0271 -104.768
6 63.4973 92.4378 -105.361
7 63.4802 92.4378 -106.402
8 64.1618 90.1609 -106.793
9 61.1042 92.8484 -108.81
10 51.1534 91.807 -109.122
11 101.626 92.1447 -109.221
12 96.9877 92.4332 -109.482
13 97.0032 92.4332 -110.152
14 51.1208 91.807 -110.256
15 61.1368 92.8484 -110.527
16 167.644 91.7389 -111.128
17 70.2082 94.0216 -111.349
18 95.5963 91.1939 -111.696
19 167.62 91.7389 -111.914
20 25.9115 92.892 -112.58
21 113.835 91.2689 -113.42
22 137.067 91.5327 -113.644
23 57.1188 92.4981 -114.358
24 32.411 91.3205 -114.602
25 104.928 93.8724 -115.781
18 25
1 67.6248 93.7854 -83.9564
2 67.6248 96.0226 -89.5667
3 57.5106 92.6667 -95.5486
4 61.1368 93.0691 -96.1311
5 61.1042 93.0691 -98.4383
6 51.2603 92.8668 -99.5033
7 99.3643 92.0639 -99.9826
8 51.2304 92.8668 -101.023
9 67.6078 96.1404 -101.273
10 104.928 93.6146 -104.668
11 64.3048 91.6885 -105.213
12 167.644 91.8494 -105.342
13 57.277 92.6665 -106.327
14 105.048 93.6146 -106.458
15 57.8392 92.6667 -106.583
16 -157.344 90.8558 -107.1
17 88.2393 91.7956 -107.697
18 104.928 95.7521 -110.035
19 72.3546 93.78 -110.168
20 104.992 93.6136 -110.185
21 58.5202 93.748 -110.23
22 82.8293 91.9636 -110.774
23 82.8186 91.9636 -111.367
24 51.2116 91.135 -111.486
25 105.048 95.752 -111.827
